timestamps,TP9,AF7,AF8,TP10,Right AUX
1671211769.410,-29.297,-25.879,-17.578,-11.719,-151.855
1671211769.414,-48.828,-26.367,-14.648,-8.789,30.273
1671211769.418,-47.363,-31.738,-21.484,-15.625,151.367
1671211769.422,-25.391,-25.879,-31.738,-31.738,-158.691
1671211769.426,-10.742,-21.973,-31.250,-25.879,-200.684
1671211769.430,-31.738,-29.297,-21.973,-19.531,56.641
1671211769.434,-44.922,-30.762,-12.207,-21.484,56.641
1671211769.437,-38.086,-21.973,-18.555,-27.832,-94.727
1671211769.441,-13.672,-18.555,-26.855,-34.668,-119.629
1671211769.445,1.953,-22.461,-24.902,-26.855,65.430
1671211769.449,-21.484,-15.137,-18.555,-17.578,104.980
1671211769.453,-47.363,-12.695,-14.648,-19.531,-88.379
1671211769.456,-46.387,-22.461,-18.066,-27.832,-76.660,0
1671211769.460,-27.832,-22.949,-24.414,-34.668,-16.602,0
1671211769.464,-10.742,-20.508,-23.438,-28.320,-10.254,0
1671211769.468,-11.230,-20.996,-18.066,-11.230,-61.523,0
1671211769.472,-37.109,-17.578,-18.066,-9.277,10.742,0
1671211769.476,-42.480,-17.578,-17.090,-14.648,75.684,0
1671211769.480,-14.648,-17.090,-15.625,-17.578,3.418,0
1671211769.483,2.441,-21.973,-20.020,-24.902,-29.785,0
1671211769.487,-8.301,-23.926,-18.066,-21.973,78.613,0
1671211769.491,-33.691,-17.090,-16.602,-9.277,378.418,0
1671211769.495,-44.434,-17.090,-22.949,-16.113,192.383,0
1671211769.499,-24.902,-19.531,-28.320,-30.762,-104.492,0
1671211769.501,-6.348,-16.113,-28.809,-30.273,-27.832,0
1671211769.505,-15.137,-15.137,-24.902,-22.461,-29.785,0
1671211769.509,-38.086,-22.461,-20.020,-26.855,-69.824,0
1671211769.513,-53.711,-25.879,-16.602,-38.574,-85.449,0
1671211769.517,-31.250,-22.461,-10.254,-28.809,-76.660,0
1671211769.521,-3.906,-24.414,-16.602,-24.414,-14.648,0
1671211769.525,-2.930,-20.996,-23.926,-16.602,-0.977,0
1671211769.528,-24.902,-17.578,-17.090,-5.859,-64.941,0
1671211769.532,-39.062,-20.996,-9.277,-2.441,153.320,0
1671211769.536,-24.414,-12.695,-6.836,-2.930,210.449,0
1671211769.540,-3.418,-9.277,-13.672,-14.648,-161.133,0
1671211769.544,2.441,-13.184,-18.066,-12.695,-119.141,0
1671211769.546,-24.902,-12.207,-15.137,-5.859,2.441,0
1671211769.550,-39.062,-10.254,-13.672,-10.254,-62.500,0
1671211769.554,-28.320,-16.602,-20.020,-20.508,-135.742,0
1671211769.558,-8.789,-19.043,-16.602,-19.531,-108.398,0
1671211769.562,-0.977,-17.578,-14.648,-19.043,-25.879,0
1671211769.566,-32.715,-22.949,-16.602,-23.926,68.848,0
1671211769.570,-58.105,-23.926,-15.137,-22.461,117.188,0
1671211769.573,-41.504,-23.926,-17.578,-27.344,102.539,0
1671211769.577,-13.184,-21.973,-14.648,-21.973,406.738,0
1671211769.581,-7.324,-16.602,-14.648,-15.625,277.344,0
1671211769.585,-25.879,-10.254,-19.531,-19.531,-111.816,0
1671211769.589,-48.340,-18.555,-18.555,-24.902,-33.691,0
1671211769.590,-43.457,-21.973,-29.297,-33.691,-41.992,0
1671211769.594,-14.648,-13.184,-35.156,-26.367,-128.418,0
1671211769.598,-15.137,-17.090,-20.996,-17.090,-111.328,0
1671211769.602,-33.203,-18.066,-19.043,-13.184,-81.055,0
1671211769.606,-55.176,-13.184,-26.367,-13.184,-75.684,0
1671211769.610,-54.199,-14.648,-21.484,-27.344,-52.734,0
1671211769.614,-28.320,-18.066,-22.461,-32.227,-75.195,0
1671211769.617,-9.766,-20.508,-18.555,-14.160,145.996,0
1671211769.621,-23.438,-18.066,-9.277,-17.578,168.945,0
1671211769.625,-47.363,-15.137,-9.766,-24.902,-128.906,0
1671211769.629,-44.922,-17.578,-20.020,-22.949,-131.348,0
1671211769.633,-33.691,-21.484,-24.902,-33.203,-31.738,0
1671211769.636,-16.602,-19.043,-18.066,-28.320,-85.449,0
1671211769.640,-17.578,-13.184,-15.625,-17.578,-81.543,0
1671211769.644,-47.363,-20.020,-13.184,-14.648,-20.996,0
1671211769.648,-50.293,-20.508,-18.066,-17.578,-26.855,0
1671211769.652,-31.250,-12.695,-23.926,-30.273,-72.754,0
1671211769.656,-17.090,-14.160,-20.508,-36.133,-19.043,0
1671211769.660,-18.066,-15.137,-23.926,-32.715,155.762,0
1671211769.663,-44.434,-13.184,-22.461,-24.414,429.199,0
1671211769.667,-60.547,-13.184,-25.879,-32.715,213.867,0
1671211769.671,-50.781,-18.066,-25.879,-40.527,-170.410,0
1671211769.675,-23.438,-22.949,-12.695,-30.273,-132.324,0
1671211769.679,-16.602,-26.855,-15.137,-25.879,-98.633,0
1671211769.682,-35.156,-25.391,-20.020,-17.578,-159.180,0
1671211769.686,-51.270,-22.461,-24.414,-19.043,-116.211,0
1671211769.690,-43.945,-22.949,-27.344,-25.391,25.879,0
1671211769.694,-12.207,-20.508,-24.902,-20.020,-36.133,0
1671211769.698,-7.324,-20.020,-24.414,-17.578,-109.863,0
1671211769.702,-29.785,-20.508,-21.973,-18.555,-14.648,0
1671211769.706,-49.805,-24.414,-22.949,-14.648,225.586,0
1671211769.709,-48.828,-25.879,-19.043,-20.996,135.254,0
1671211769.713,-25.879,-21.484,-18.555,-28.809,-147.949,0
1671211769.717,-17.090,-28.320,-24.902,-31.738,-95.215,0
1671211769.721,-29.297,-32.715,-26.367,-23.926,13.184,0
1671211769.725,-51.758,-23.926,-18.555,-17.578,-45.410,0
1671211769.725,-52.246,-19.043,-18.555,-29.297,-82.031,0
1671211769.729,-20.996,-26.855,-30.762,-31.738,-32.227,0
1671211769.733,-12.207,-25.879,-33.691,-28.809,-35.645,0
1671211769.737,-24.902,-18.066,-28.809,-21.973,-24.414,0
1671211769.741,-43.945,-19.043,-22.461,-21.484,-62.012,0
1671211769.745,-52.246,-23.438,-13.672,-20.020,-23.438,0
1671211769.749,-27.344,-25.879,-9.277,-18.555,234.863,0
1671211769.752,-8.301,-25.391,-16.113,-28.809,187.012,0
1671211769.756,-25.879,-19.043,-20.996,-35.645,-49.316,0
1671211769.760,-46.875,-21.484,-19.043,-26.855,18.555,0
1671211769.764,-45.898,-28.320,-17.578,-18.066,123.047,0
1671211769.768,-26.855,-20.508,-20.996,-28.809,-67.871,0
1671211769.786,-12.207,-21.484,-21.973,-31.738,-130.859,0
1671211769.790,-16.602,-27.344,-18.555,-25.391,-60.059,0
1671211769.794,-37.109,-23.926,-17.578,-21.484,-14.648,0
1671211769.798,-50.781,-17.578,-17.578,-24.902,-57.617,0
1671211769.802,-32.227,-17.090,-14.648,-19.043,-85.938,0
1671211769.806,-9.277,-18.066,-13.672,-13.184,100.098,0
1671211769.810,-18.555,-23.438,-24.902,-24.414,166.016,0
1671211769.813,-49.316,-25.391,-24.414,-33.203,46.875,0
1671211769.817,-51.270,-22.461,-20.508,-34.180,-142.578,0
1671211769.821,-29.297,-20.996,-22.949,-25.391,41.504,0
1671211769.825,-11.230,-12.695,-21.973,-22.949,162.598,0
1671211769.829,-16.113,-14.160,-20.508,-26.855,-92.285,0
1671211769.830,-40.039,-20.996,-21.973,-25.391,-93.262,0
1671211769.834,-50.293,-24.902,-24.902,-34.180,-93.750,0
1671211769.838,-34.668,-23.438,-22.461,-46.875,-162.598,0
1671211769.842,-5.371,-22.949,-20.996,-40.039,-163.086,0
1671211769.846,-0.977,-26.367,-26.855,-27.344,8.789,0
1671211769.850,-27.344,-22.461,-30.762,-29.297,144.043,0
1671211769.854,-45.898,-23.438,-29.297,-35.156,104.004,0
1671211769.857,-35.156,-25.879,-25.391,-37.598,-9.766,0
1671211769.861,-13.184,-24.414,-26.855,-28.809,22.949,0
1671211769.865,-20.020,-26.855,-28.809,-8.789,338.379,0
1671211769.869,-45.410,-28.320,-21.973,-9.766,271.484,0
1671211769.873,-57.617,-21.973,-24.902,-24.902,-112.305,0
1671211769.876,-52.246,-22.461,-37.598,-25.391,-137.207,0
1671211769.880,-28.320,-26.855,-27.832,-16.113,-66.895,0
1671211769.884,-21.484,-30.762,-19.043,-20.508,-131.348,0
1671211769.888,-39.551,-30.273,-20.508,-21.484,-87.402,0
1671211769.892,-55.664,-22.461,-15.625,-22.949,14.648,0
1671211769.896,-48.828,-17.578,-17.090,-31.738,76.172,0
1671211769.900,-25.391,-23.926,-21.973,-30.762,50.781,0
1671211769.903,-11.719,-19.043,-17.090,-20.996,-36.133,0
1671211769.907,-20.508,-12.207,-14.648,-2.930,139.160,0
1671211769.911,-44.922,-20.996,-17.578,-20.508,190.430,0
1671211769.915,-42.969,-20.020,-20.996,-36.133,-122.070,0
1671211769.919,-17.090,-13.184,-26.855,-33.691,-124.023,0
1671211769.922,-0.977,-12.207,-20.996,-26.367,-73.730,0
1671211769.926,-11.719,-17.578,-17.578,-19.043,-32.715,0
1671211769.930,-40.039,-14.160,-15.137,-20.996,-9.766,0
1671211769.934,-49.316,-12.207,-17.090,-20.508,-30.762,0
1671211769.938,-21.973,-19.531,-13.184,-22.461,-0.977,0
1671211769.942,-0.977,-20.508,-9.766,-22.461,-6.348,0
1671211769.946,-11.719,-19.531,-25.391,-19.531,39.551,0
1671211769.949,-36.133,-20.996,-21.973,-19.043,100.098,0
1671211769.953,-44.434,-21.484,-14.648,-15.625,321.777,0
1671211769.957,-24.902,-16.113,-7.324,-20.508,161.133,0
1671211769.961,-4.395,-10.742,-4.395,-20.996,-152.832,0
1671211769.965,-14.160,-9.766,-15.137,-14.648,-93.750,0
1671211769.966,-47.852,-18.555,-20.020,-22.461,-83.496,0
1671211769.970,-56.641,-21.973,-19.043,-30.273,-166.016,0
1671211769.974,-33.203,-18.555,-20.508,-29.297,-220.703,0
1671211769.978,-6.836,-19.043,-25.879,-24.902,-169.434,0
1671211769.982,-3.906,-16.113,-14.160,-20.996,-73.242,0
1671211769.986,-24.902,-15.137,-10.742,-18.555,-1.953,0
1671211769.990,-41.504,-17.578,-25.391,-16.113,-1.953,0
1671211769.993,-35.645,-24.902,-25.391,-18.555,159.180,0
1671211769.997,-17.090,-23.438,-16.602,-22.949,283.691,0
1671211770.001,-11.719,-18.555,-10.742,-16.113,-15.137,0
1671211770.005,-34.668,-21.484,-7.324,-8.789,-45.898,0
1671211770.009,-54.199,-22.461,-7.812,-18.066,0.488,0
1671211770.011,-41.016,-20.020,-16.113,-21.973,-75.195,0
1671211770.015,-15.137,-15.137,-13.672,-15.137,-120.605,0
1671211770.019,-12.207,-18.066,-8.789,-9.766,-40.039,0
1671211770.023,-28.809,-24.902,-10.254,-14.648,14.160,0
1671211770.027,-49.805,-19.531,-14.160,-26.367,-62.012,0
1671211770.031,-47.363,-20.508,-25.879,-34.180,-84.473,0
1671211770.035,-16.113,-20.508,-31.250,-32.715,34.668,0
1671211770.038,-6.836,-19.531,-27.344,-21.484,350.586,0
1671211770.042,-31.738,-23.438,-24.902,-23.438,276.367,0
1671211770.046,-58.105,-21.484,-20.996,-33.691,-77.148,0
1671211770.050,-47.852,-17.090,-18.066,-29.785,-42.969,0
1671211770.054,-21.484,-16.113,-26.367,-27.832,21.973,0
1671211770.056,-14.648,-16.602,-24.414,-23.438,-169.922,0
1671211770.060,-29.785,-20.020,-19.043,-11.230,-180.176,0
1671211770.064,-47.852,-14.648,-28.809,-14.160,-99.121,0
1671211770.068,-48.828,-15.625,-27.832,-26.367,-44.434,0
1671211770.072,-26.855,-16.113,-20.508,-30.762,-84.473,0
1671211770.076,-6.836,-11.230,-21.973,-30.273,-84.961,0
1671211770.080,-16.113,-19.531,-31.738,-20.508,285.156,0
1671211770.083,-39.062,-20.020,-28.809,-13.672,297.363,0
1671211770.087,-47.852,-18.555,-20.020,-29.785,-144.531,0
1671211770.091,-31.250,-20.020,-21.973,-38.574,-156.738,0
1671211770.095,-10.742,-20.996,-22.461,-36.133,-24.902,0
1671211770.099,-19.043,-19.531,-12.695,-26.855,-62.500,0
1671211770.101,-43.457,-18.555,-13.672,-21.973,-92.285,0
1671211770.105,-55.664,-25.879,-29.297,-23.926,-58.105,0
1671211770.109,-37.598,-34.180,-27.344,-33.203,-94.238,0
1671211770.113,-12.695,-29.785,-20.020,-38.574,-137.695,0
1671211770.117,-18.555,-24.414,-15.625,-27.344,-92.773,0
1671211770.121,-43.945,-25.879,-20.508,-27.344,129.395,0
1671211770.125,-54.688,-23.926,-14.160,-25.879,221.191,0
1671211770.128,-37.598,-16.113,-2.930,-27.832,-29.297,0
1671211770.132,-18.066,-16.602,-17.578,-41.016,-131.348,0
1671211770.136,-20.020,-21.973,-22.461,-34.180,40.039,0
1671211770.140,-45.898,-20.996,-16.602,-23.438,180.176,0
1671211770.144,-59.570,-26.367,-19.531,-33.203,-112.305,0
1671211770.161,-42.480,-31.250,-26.367,-31.250,-216.797,0
1671211770.165,-21.484,-27.832,-25.879,-20.996,-44.922,0
1671211770.169,-14.648,-25.391,-16.602,-19.043,-78.613,0
1671211770.173,-39.551,-23.438,-9.766,-20.508,-214.844,0
1671211770.177,-60.547,-17.578,-18.066,-30.273,-184.570,0
1671211770.181,-47.852,-20.508,-32.227,-36.133,-6.348,0
1671211770.185,-24.902,-19.043,-25.879,-32.227,9.766,0
1671211770.188,-17.090,-14.160,-21.484,-29.297,-78.125,0
1671211770.192,-35.645,-19.531,-29.785,-21.484,-26.367,0
1671211770.196,-55.664,-21.484,-26.367,-15.625,121.094,0
1671211770.200,-50.781,-14.160,-27.344,-18.555,52.734,0
1671211770.204,-28.320,-14.160,-19.531,-18.066,-142.090,0
1671211770.206,-19.043,-13.184,-8.301,-8.789,-96.191,0
1671211770.210,-37.598,-13.184,-22.949,-8.789,10.254,0
1671211770.214,-64.453,-16.113,-29.785,-16.113,-3.418,0
1671211770.218,-60.059,-13.672,-25.391,-21.973,-116.211,0
1671211770.222,-29.785,-14.648,-30.762,-20.020,23.438,0
1671211770.226,-15.625,-16.113,-28.809,-10.254,181.641,0
1671211770.230,-28.320,-15.625,-25.879,-13.184,96.680,0
1671211770.233,-56.152,-24.414,-31.738,-18.066,54.688,0
1671211770.237,-60.547,-24.414,-25.391,-14.160,132.812,0
1671211770.241,-37.598,-17.578,-18.555,-13.672,145.020,0
1671211770.245,-22.461,-17.578,-17.578,-18.555,-72.266,0
1671211770.249,-37.598,-23.926,-20.996,-23.926,-166.016,0
1671211770.251,-54.199,-24.902,-29.297,-11.230,51.758,0
1671211770.255,-54.688,-20.508,-35.156,0.000,150.879,0
1671211770.259,-51.270,-17.578,-20.508,-28.320,-112.305,0
1671211770.263,-45.410,-20.996,-8.301,-36.133,-74.219,0
1671211770.267,-45.410,-26.367,-13.672,-12.207,50.781,0
1671211770.271,-65.430,-24.902,-15.625,-15.625,84.961,0
1671211770.275,-78.125,-25.879,-14.160,-35.645,39.551,0
1671211770.278,-53.711,-25.879,-10.742,-35.645,-71.777,0
1671211770.282,-31.250,-26.855,-16.113,-29.297,168.457,0
1671211770.286,-41.992,-29.785,-20.508,-26.855,333.008,0
1671211770.290,-64.453,-26.367,-17.578,-24.414,62.988,0
1671211770.294,-75.684,-23.438,-11.230,-17.090,2.441,0
1671211770.296,-63.965,-19.531,-5.859,-14.160,-1.953,0
1671211770.300,-43.457,-20.508,-18.066,-15.625,-100.098,0
1671211770.304,-40.527,-21.973,-22.461,-18.066,-147.949,0
1671211770.308,-59.082,-19.531,-13.184,-13.672,-32.715,0
1671211770.312,-73.730,-28.320,-18.555,-13.672,16.602,0
1671211770.316,-57.129,-26.367,-25.879,-22.461,-2.930,0
1671211770.320,-29.785,-24.414,-22.461,-18.555,26.367,0
1671211770.323,-25.879,-25.391,-20.020,-11.719,173.340,0
1671211770.327,-38.574,-18.066,-15.625,3.906,390.625,0
1671211770.331,-67.871,-24.414,-15.625,0.977,201.660,0
1671211770.335,-71.777,-28.809,-18.066,-20.020,-46.875,0
1671211770.339,-42.969,-20.020,-19.531,-18.555,36.621,0
1671211770.341,-32.227,-17.578,-22.949,-15.137,62.500,0
1671211770.345,-49.805,-19.531,-28.320,-16.113,-8.789,0
1671211770.349,-68.359,-21.973,-26.367,-18.066,28.320,0
1671211770.353,-56.641,-24.902,-12.695,-18.555,-14.160,0
1671211770.357,-29.785,-23.926,-21.973,-11.230,-86.914,0
1671211770.361,-19.043,-27.832,-29.785,-10.254,-67.383,0
1671211770.365,-28.320,-26.855,-20.020,-10.254,41.016,0
1671211770.368,-41.016,-20.508,-12.207,5.371,242.188,0
1671211770.372,-42.480,-22.461,-20.020,-3.906,148.438,0
1671211770.376,-26.367,-20.508,-20.020,-19.043,-60.547,0
1671211770.380,-9.277,-20.508,-13.672,-15.137,26.855,0
1671211770.384,-14.648,-28.809,-20.020,-6.348,67.871,0
1671211770.386,-38.574,-25.391,-13.184,3.906,44.922,0
1671211770.390,-50.781,-29.297,-8.789,-9.766,-51.270,0
1671211770.394,-27.832,-28.809,-9.766,-19.043,-34.180,0
1671211770.398,-3.906,-21.973,-8.301,-14.160,68.359,0
1671211770.402,-17.090,-22.949,-8.301,-16.602,45.410,0
1671211770.406,-44.434,-22.949,-4.883,-16.113,45.898,0
1671211770.410,-49.805,-22.949,-11.230,-21.973,208.496,0
1671211770.413,-28.320,-22.949,-16.113,-20.020,451.172,0
1671211770.417,-7.324,-20.996,-17.090,-27.832,208.008,0
1671211770.421,-11.719,-22.461,-20.020,-38.086,16.602,0
1671211770.425,-32.715,-22.949,-16.113,-24.902,147.461,0
1671211770.429,-50.781,-21.484,-7.812,-16.113,104.004,0
1671211770.431,-43.457,-20.508,-6.348,-23.438,-39.062,0
1671211770.435,-12.207,-18.066,-10.254,-24.902,-20.508,0
1671211770.439,-14.648,-19.531,-11.719,-22.949,42.969,0
1671211770.443,-44.434,-22.461,-10.742,-23.438,118.164,0
1671211770.447,-54.199,-21.973,-13.184,-28.809,136.719,0
1671211770.451,-42.969,-25.391,-15.137,-34.180,77.148,0
1671211770.455,-18.066,-24.414,-13.184,-22.461,359.863,0
1671211770.458,-10.742,-16.113,-10.254,-15.137,483.398,0
1671211770.462,-27.832,-14.648,-11.719,-18.555,100.586,0
1671211770.466,-37.598,-15.137,-8.789,-16.602,16.113,0
1671211770.470,-17.090,-16.602,-6.348,-28.320,74.707,0
1671211770.474,21.973,-13.672,-13.672,-30.273,23.926,0
1671211770.475,36.621,-12.207,-17.578,-18.555,-20.020,0
1671211770.479,14.648,-14.648,-20.020,-12.207,87.402,0
1671211770.483,-1.953,-16.602,-20.508,-13.672,136.719,0
1671211770.487,14.160,-18.555,-18.066,-26.367,17.578,0
1671211770.491,37.109,-23.438,-18.555,-36.133,-50.293,0
1671211770.495,55.664,-23.926,-14.160,-24.902,127.441,0
1671211770.499,46.875,-20.508,-9.766,-17.578,317.383,0
1671211770.502,19.531,-21.484,-9.277,-29.297,127.930,0
1671211770.506,21.484,-26.367,-17.090,-40.039,-38.574,0
1671211770.510,55.664,-29.297,-16.602,-41.016,77.148,0
1671211770.514,78.613,-22.949,-11.230,-29.785,370.605,0
1671211770.518,61.523,-19.531,-15.137,-33.203,162.598,0
1671211770.536,38.086,-15.625,-19.043,-37.598,-127.441,0
1671211770.540,35.645,-11.230,-20.020,-31.738,-76.172,0
1671211770.544,51.270,-18.066,-19.531,-31.250,-88.379,0
1671211770.548,61.035,-23.438,-24.414,-29.297,-101.074,0
1671211770.552,41.504,-21.973,-23.438,-30.762,-59.570,0
1671211770.556,1.465,-25.391,-19.043,-31.738,42.969,0
1671211770.560,-16.113,-26.367,-23.438,-35.156,30.273,0
1671211770.563,0.977,-19.043,-18.066,-36.133,-88.867,0
1671211770.567,18.066,-13.672,-20.996,-33.691,-147.949,0
1671211770.571,3.418,-13.672,-30.273,-30.762,-49.316,0
1671211770.575,-33.691,-16.113,-26.367,-26.367,-25.879,0
1671211770.579,-54.199,-20.020,-24.414,-33.691,-127.930,0
1671211770.580,-41.992,-20.996,-27.344,-40.039,-66.406,0
1671211770.584,-24.414,-16.113,-25.879,-32.715,71.777,0
1671211770.588,-33.203,-11.230,-20.996,-26.855,15.625,0
1671211770.592,-60.547,-14.160,-20.020,-33.691,-76.660,0
1671211770.596,-75.684,-13.184,-28.809,-41.016,28.809,0
1671211770.600,-68.359,-13.184,-29.785,-39.062,110.840,0
1671211770.604,-50.293,-13.184,-23.438,-28.320,52.734,0
1671211770.607,-52.246,-10.254,-26.367,-22.461,-6.836,0
1671211770.611,-77.148,-7.324,-25.391,-20.508,103.027,0
1671211770.615,-88.379,-5.859,-20.508,-8.789,392.578,0
1671211770.619,-77.148,-4.883,-17.578,-17.090,201.660,0
1671211770.623,-62.988,-7.812,-23.438,-26.855,-148.438,0
1671211770.626,-59.570,-11.719,-29.785,-21.973,-13.672,0
1671211770.630,-86.426,-10.742,-24.414,-18.555,105.957,0
1671211770.634,-117.188,-8.789,-28.809,-23.438,-43.945,0
1671211770.638,-104.004,-17.090,-39.551,-36.133,-188.477,0
1671211770.642,-72.266,-23.926,-34.180,-30.762,-57.617,0
1671211770.646,-69.824,-18.555,-32.227,-24.414,58.594,0
1671211770.650,-95.215,-17.578,-30.273,-20.996,3.906,0
1671211770.653,-111.816,-15.137,-26.367,-28.809,-41.992,0
1671211770.657,-103.027,-13.672,-35.156,-31.738,87.402,0
1671211770.661,-73.730,-14.160,-28.809,-27.344,125.488,0
1671211770.665,-56.152,-10.742,-23.926,-30.273,-75.684,0
1671211770.669,-74.707,-12.695,-34.180,-24.902,-67.871,0
1671211770.671,-91.309,-11.230,-30.762,-22.949,-17.090,0
1671211770.675,-87.402,-16.113,-21.973,-20.508,-54.688,0
1671211770.679,-69.824,-21.484,-27.344,-18.555,-82.520,0
1671211770.683,-52.734,-20.508,-32.715,-15.137,91.797,0
1671211770.687,-65.430,-21.484,-23.926,-11.719,231.445,0
1671211770.691,-85.938,-21.484,-26.855,-20.020,160.156,0
1671211770.695,-78.125,-20.020,-29.297,-22.949,115.234,0
1671211770.698,-52.246,-18.555,-18.555,-16.602,173.340,0
1671211770.702,-29.785,-20.996,-17.090,-5.859,499.512,0
1671211770.706,-34.668,-22.461,-23.438,-8.301,399.414,0
1671211770.710,-49.805,-18.066,-24.902,-15.625,42.969,0
1671211770.714,-41.992,-18.555,-36.621,-21.484,20.020,0
1671211770.716,-18.066,-19.531,-41.992,-35.156,27.344,0
1671211770.720,6.348,-12.207,-28.809,-31.738,-44.434,0
1671211770.724,-2.930,-18.066,-28.809,-30.273,-83.496,0
1671211770.728,-33.691,-19.043,-29.297,-32.715,1.465,0
1671211770.732,-41.016,-21.973,-20.996,-26.855,10.742,0
1671211770.736,-20.508,-25.879,-16.602,-20.508,55.664,0
1671211770.740,4.883,-14.648,-11.719,-19.531,61.035,0
1671211770.743,5.859,-16.602,-13.672,-9.766,301.270,0
1671211770.747,-29.785,-23.438,-26.367,-17.578,390.625,0
1671211770.751,-46.875,-23.926,-31.250,-35.645,-54.688,0
1671211770.755,-26.367,-21.484,-25.391,-29.785,-154.297,0
1671211770.759,6.348,-14.160,-17.578,-20.508,-81.055,0
1671211770.760,14.648,-9.766,-16.602,-17.090,-95.703,0
1671211770.764,-12.695,-14.160,-17.090,-17.578,-70.312,0
1671211770.768,-29.785,-14.648,-16.602,-17.090,-12.695,0
1671211770.772,-17.578,-13.184,-23.926,-20.508,10.254,0
1671211770.776,10.254,-19.043,-20.996,-23.438,-37.109,0
1671211770.780,19.043,-13.672,-5.859,-23.438,-28.809,0
1671211770.784,7.812,-4.883,-7.324,-13.672,138.672,0
1671211770.787,-9.277,-8.301,-20.020,-0.488,325.684,0
1671211770.791,-5.859,-12.207,-18.066,-14.160,70.801,0
1671211770.795,22.949,-8.789,-13.184,-19.043,-218.262,0
1671211770.799,31.738,-8.301,-12.695,-3.418,-14.160,0
1671211770.803,8.789,-13.184,-13.184,-8.789,68.848,0
1671211770.805,-10.254,-16.602,-16.113,-23.438,-158.203,0
1671211770.809,-6.836,-23.438,-18.555,-28.809,-220.703,0
1671211770.813,15.625,-16.602,-17.578,-29.785,-152.832,0
1671211770.817,33.203,-9.277,-15.625,-29.297,-157.715,0
1671211770.821,18.555,-11.719,-13.672,-31.738,-208.008,0
1671211770.825,-12.695,-13.184,-20.508,-28.320,-225.098,0
1671211770.829,-24.902,-20.020,-21.484,-17.090,23.926,0
1671211770.832,-0.977,-18.066,-16.602,-20.508,48.828,0
1671211770.836,10.742,-19.043,-17.090,-23.926,-257.812,0
1671211770.840,-13.184,-20.020,-16.113,-20.996,-285.645,0
1671211770.844,-31.250,-15.625,-21.973,-27.832,-232.910,0
1671211770.848,-32.715,-15.625,-23.926,-28.320,-295.898,0
1671211770.852,-17.090,-20.996,-19.043,-30.273,-286.133,0
1671211770.856,-0.488,-20.020,-20.508,-25.879,-139.648,0
1671211770.860,-5.859,-14.160,-20.020,-13.672,-92.285,0
1671211770.864,-39.062,-12.207,-23.438,-17.090,-231.445,0
1671211770.868,-51.270,-17.578,-30.273,-23.438,-363.770,0
1671211770.872,-29.785,-25.391,-28.320,-29.297,-207.031,0
1671211770.876,-3.906,-21.973,-27.832,-23.438,-16.113,0
1671211770.879,-10.254,-13.672,-22.949,-20.020,-82.520,0
1671211770.883,-41.992,-12.695,-18.066,-30.273,-160.645,0
1671211770.887,-47.852,-12.695,-25.391,-31.250,-146.973,0
1671211770.891,-25.391,-16.602,-25.391,-24.902,58.594,0
1671211770.895,-2.441,-14.648,-24.902,-29.297,-113.770,0
1671211770.911,-4.883,-11.230,-27.832,-31.738,-281.738,0
1671211770.915,-33.203,-15.625,-24.414,-25.391,-201.660,0
1671211770.919,-45.410,-13.672,-20.020,-29.785,-226.074,0
1671211770.923,-28.809,-16.602,-16.602,-32.715,-217.285,0
1671211770.927,-2.930,-18.555,-17.090,-29.785,-231.445,0
1671211770.931,1.465,-15.137,-16.113,-18.066,58.594,0
1671211770.935,-18.555,-10.254,-17.090,-13.184,196.777,0
1671211770.938,-41.992,-11.719,-22.461,-32.227,-218.262,0
1671211770.942,-33.691,-19.043,-21.484,-35.645,-336.426,0
1671211770.946,-10.742,-22.461,-20.020,-25.879,-224.609,0
1671211770.950,-7.812,-20.020,-13.672,-24.414,-194.336,0
1671211770.954,-26.855,-21.973,-9.766,-26.855,-224.609,0
1671211770.956,-42.969,-24.414,-18.066,-28.320,-248.535,0
1671211770.960,-41.504,-21.484,-21.484,-38.086,-245.605,0
1671211770.964,-20.020,-21.484,-19.531,-37.109,-236.328,0
1671211770.968,-4.883,-23.438,-12.695,-20.508,-185.547,0
1671211770.972,-25.879,-25.391,-9.766,-11.230,-59.570,0
1671211770.976,-52.734,-23.438,-12.695,-17.578,15.137,0
1671211770.980,-54.199,-20.996,-19.531,-31.250,-36.133,0
1671211770.983,-25.391,-22.461,-26.367,-34.668,-104.004,0
1671211770.987,-9.277,-25.391,-23.438,-22.949,80.078,0
1671211770.991,-23.926,-22.949,-18.066,-9.277,384.277,0
1671211770.995,-52.246,-18.555,-13.672,-8.789,187.988,0
1671211770.999,-57.129,-20.020,-13.672,-20.020,-152.832,0
1671211771.000,-26.855,-20.996,-15.625,-22.949,-135.254,0
1671211771.004,-6.348,-17.578,-11.719,-13.184,-73.730,0
1671211771.008,-28.320,-18.555,-10.742,-12.695,-65.918,0
1671211771.012,-59.570,-23.926,-12.695,-17.578,-80.566,0
1671211771.016,-55.664,-27.344,-11.230,-19.531,-54.199,0
1671211771.020,-26.367,-22.461,-7.324,-22.461,-10.742,0
1671211771.024,-2.441,-15.137,-7.324,-17.578,48.828,0
1671211771.027,-13.184,-16.113,-15.625,-20.020,-7.324,0
1671211771.031,-43.457,-20.996,-19.043,-16.113,197.266,0
1671211771.035,-50.781,-17.090,-11.719,-14.160,299.805,0
1671211771.039,-33.691,-19.043,-14.160,-32.715,-50.781,0
1671211771.043,-14.648,-20.508,-20.508,-31.738,-71.289,0
1671211771.046,-23.438,-20.996,-19.531,-21.484,64.453,0
1671211771.050,-50.781,-22.949,-14.160,-26.367,51.270,0
1671211771.054,-63.477,-21.484,-18.555,-27.832,-42.480,0
1671211771.058,-43.457,-21.973,-26.855,-20.996,-34.668,0
1671211771.062,-20.020,-20.996,-22.949,-19.531,34.180,0
1671211771.066,-25.391,-15.625,-12.207,-13.672,83.496,0
1671211771.070,-57.129,-20.020,-19.531,-16.113,3.418,0
1671211771.073,-74.707,-22.949,-21.973,-17.090,61.035,0
1671211771.077,-53.223,-23.438,-18.066,-13.672,129.395,0
1671211771.081,-19.043,-22.461,-19.043,-6.836,-50.781,0
1671211771.085,-16.602,-21.973,-20.508,-7.324,-78.613,0
1671211771.089,-54.199,-21.484,-29.297,-20.996,81.543,0
1671211771.091,-66.895,-16.602,-27.832,-11.719,413.086,0
1671211771.095,-53.711,-12.695,-18.066,-15.625,188.477,0
1671211771.099,-28.809,-17.578,-14.648,-22.949,-96.680,0
1671211771.103,-12.695,-19.043,-11.719,-8.301,41.504,0
1671211771.107,-38.574,-18.555,-15.137,-12.207,95.703,0
1671211771.111,-62.012,-26.855,-28.320,-19.531,53.711,0
1671211771.115,-56.641,-25.879,-32.715,-25.391,25.391,0
1671211771.118,-28.809,-23.926,-29.785,-14.160,260.742,0
1671211771.122,-10.742,-22.461,-26.367,-0.488,309.082,0
1671211771.126,-30.762,-18.555,-23.926,-2.441,42.480,0
1671211771.130,-49.805,-16.602,-16.602,0.977,36.133,0
1671211771.134,-47.363,-18.555,-17.578,-8.301,62.988,0
1671211771.135,-37.109,-22.949,-33.203,-19.531,33.203,0
1671211771.139,-19.531,-20.508,-34.668,-13.184,45.410,0
1671211771.143,-28.320,-21.484,-28.320,-4.395,183.594,0
1671211771.147,-62.012,-24.902,-31.250,-17.090,262.207,0
1671211771.151,-65.430,-26.367,-30.273,-28.320,152.832,0
1671211771.155,-37.109,-19.531,-26.367,-19.531,112.793,99
1671211771.159,-13.184,-10.742,-24.902,-13.672,283.691,0
1671211771.162,-21.484,-15.137,-18.555,-4.395,648.438,0
1671211771.166,-46.875,-16.113,-19.043,-5.371,559.082,0
1671211771.170,-58.594,-11.719,-23.926,-21.484,151.367,0
1671211771.174,-37.109,-12.207,-25.879,-23.438,99.609,0
1671211771.178,-14.160,-15.625,-33.691,-16.113,155.273,0
1671211771.181,-21.484,-15.625,-34.180,-10.742,106.934,0
1671211771.185,-46.387,-14.648,-28.320,-7.324,93.262,0
1671211771.189,-54.199,-18.555,-22.949,-5.859,123.047,0
1671211771.193,-34.668,-15.625,-18.555,-6.348,46.387,0
1671211771.197,-12.207,-13.672,-16.113,-0.977,39.551,0
1671211771.201,-19.043,-18.555,-16.602,0.000,181.641,0
1671211771.205,-55.176,-23.926,-21.973,3.906,436.523,0
1671211771.208,-68.848,-19.043,-17.090,7.324,432.617,0
1671211771.212,-49.316,-12.207,-15.137,-4.883,112.793,0
1671211771.216,-32.227,-14.160,-23.926,-11.719,91.309,0
1671211771.220,-35.645,-17.578,-19.531,-8.301,268.066,0
1671211771.224,-59.082,-16.113,-26.367,-12.695,271.973,0
1671211771.225,-66.406,-17.090,-39.062,-16.602,135.254,0
1671211771.229,-54.199,-24.414,-36.621,-23.926,149.902,0
1671211771.233,-33.691,-22.461,-36.621,-26.367,125.977,0
1671211771.237,-20.020,-22.949,-29.785,-15.137,111.816,0
1671211771.241,-36.621,-28.320,-29.785,-15.625,139.160,0
1671211771.245,-59.570,-29.297,-35.156,-23.926,246.582,0
1671211771.249,-49.805,-25.879,-26.367,-21.484,382.812,0
1671211771.252,-21.484,-19.043,-22.949,-9.766,230.957,0
1671211771.256,-9.766,-21.484,-25.391,-4.395,199.707,0
1671211771.260,-24.414,-24.414,-20.020,-2.441,326.660,0
1671211771.264,-42.480,-23.438,-14.648,3.418,553.711,0
1671211771.268,-41.016,-24.414,-16.113,-4.883,366.211,0
1671211771.285,-13.672,-26.367,-14.648,-8.789,76.172,0
1671211771.289,7.324,-25.879,-13.184,0.000,112.793,0
1671211771.293,-16.113,-25.879,-22.461,-3.906,111.816,0
1671211771.297,-42.969,-29.785,-25.391,-16.113,45.410,0
1671211771.301,-30.762,-25.391,-15.625,-17.578,-31.738,0
1671211771.305,-3.418,-17.578,-10.254,-18.066,30.762,0
1671211771.309,9.766,-14.160,-5.371,-18.555,92.773,0
1671211771.312,-4.883,-16.602,-8.301,-16.113,40.527,0
1671211771.316,-35.645,-18.555,-10.742,-21.973,8.301,0
1671211771.320,-37.598,-21.484,-14.160,-29.297,196.289,0
1671211771.324,-7.812,-21.973,-16.602,-26.855,160.156,0
1671211771.328,9.766,-15.625,-14.160,-17.578,-25.391,0
1671211771.331,-9.277,-17.090,-15.137,-20.020,86.914,0
1671211771.335,-37.109,-21.973,-20.508,-23.438,130.371,0
1671211771.339,-45.410,-18.555,-21.484,-25.879,-83.008,0
1671211771.343,-19.043,-16.113,-13.672,-23.438,-173.828,0
1671211771.347,8.789,-17.090,-18.066,-21.484,-32.715,0
1671211771.351,-7.324,-17.090,-27.344,-25.391,50.781,0
1671211771.355,-36.621,-20.996,-29.785,-23.926,-4.395,0
1671211771.358,-54.199,-25.391,-27.832,-25.391,-32.715,0
1671211771.362,-37.109,-25.879,-21.973,-27.832,83.984,0
1671211771.366,-8.789,-26.855,-16.602,-12.695,375.977,0
1671211771.370,-12.207,-23.926,-13.672,-10.742,240.234,0
1671211771.374,-30.273,-24.414,-10.254,-18.555,-109.863,0
1671211771.375,-37.109,-23.926,-6.836,-14.648,-121.582,0
1671211771.379,-23.926,-20.996,-13.184,-16.113,-132.324,0
1671211771.383,-6.836,-27.832,-26.367,-16.113,-131.836,0
1671211771.387,-14.160,-32.715,-27.344,-17.578,-22.949,0
1671211771.391,-41.016,-26.367,-15.137,-17.578,47.852,0
1671211771.395,-53.711,-22.461,-11.230,-20.020,-18.555,0
1671211771.399,-42.480,-23.926,-23.438,-34.180,-74.707,0
1671211771.402,-18.555,-26.855,-26.367,-32.227,-102.051,0
1671211771.406,-0.488,-23.926,-11.230,-1.953,136.230,0
1671211771.410,-20.996,-21.484,-14.160,-2.441,207.520,0
1671211771.414,-44.434,-21.484,-22.461,-20.508,-94.727,0
1671211771.418,-25.391,-21.484,-20.996,-20.020,-131.836,0
1671211771.420,-5.859,-23.926,-19.043,-21.484,-110.352,0
1671211771.424,-2.930,-23.438,-20.508,-29.297,-88.867,0
1671211771.428,-15.625,-25.879,-20.996,-26.855,-83.984,0
1671211771.432,-37.109,-25.391,-19.043,-22.461,-25.391,0
1671211771.436,-43.945,-23.438,-27.344,-35.156,-7.324,0
1671211771.440,-22.949,-23.926,-30.762,-34.668,-6.348,0
1671211771.444,-5.371,-25.879,-24.414,-24.902,7.812,0
1671211771.447,-27.344,-31.250,-29.297,-22.949,87.402,0
1671211771.451,-59.082,-27.344,-28.320,-14.160,416.504,0
1671211771.455,-56.641,-18.555,-21.484,-21.973,291.992,0
1671211771.459,-25.879,-20.996,-24.902,-31.250,-149.902,0
1671211771.463,-5.371,-23.926,-19.043,-21.484,-177.734,0
1671211771.466,-17.578,-24.414,-17.578,-21.484,-116.699,0
1671211771.470,-44.922,-28.809,-33.203,-31.250,-96.680,0
1671211771.474,-48.828,-27.344,-36.621,-37.598,-120.117,0
1671211771.478,-27.832,-27.832,-26.855,-33.203,-157.715,0
1671211771.482,-7.812,-28.320,-27.832,-27.832,-149.414,0
1671211771.486,2.930,-19.043,-22.949,-8.789,-56.641,0
1671211771.490,-1.953,-9.277,-25.879,8.301,5.371,0
1671211771.493,-35.645,-10.742,-18.555,-12.207,123.535,0
1671211771.497,-37.598,-20.020,-6.348,-30.762,129.395,0
1671211771.501,-5.859,-23.926,-13.672,-23.438,-113.770,0
1671211771.505,-20.020,-19.531,-5.859,-28.320,-109.863,0
1671211771.509,-54.199,-19.531,-8.301,-36.133,-22.461,0
1671211771.510,-61.035,-24.902,-18.555,-31.738,-53.223,0
1671211771.514,-39.062,-27.344,-8.301,-35.156,-152.832,0
1671211771.518,-11.230,-25.391,-14.160,-33.203,-104.492,0
1671211771.522,-13.184,-22.949,-31.738,-27.832,-42.969,0
1671211771.526,-39.062,-23.926,-30.762,-27.344,-147.949,0
1671211771.530,-45.410,-27.832,-25.879,-27.344,-132.812,0
1671211771.534,-34.668,-29.297,-20.996,-35.156,32.227,0
1671211771.537,-17.578,-23.926,-28.809,-27.832,307.129,0
1671211771.541,-7.324,-19.531,-33.203,-23.438,142.090,0
1671211771.545,-25.391,-17.578,-25.391,-30.273,-129.883,0
1671211771.549,-39.062,-17.578,-19.531,-31.250,-46.875,0
1671211771.553,-22.949,-11.230,-16.113,-28.809,-11.719,0
1671211771.557,-7.812,-13.184,-27.832,-29.297,-40.039,0
1671211771.561,-7.324,-20.508,-29.785,-28.809,-87.891,0
1671211771.565,-22.949,-17.090,-20.020,-22.461,-10.254,0
1671211771.569,-51.270,-23.438,-22.461,-26.855,-14.648,0
1671211771.573,-47.852,-21.973,-24.902,-36.621,-176.758,0
1671211771.577,-15.625,-15.625,-24.902,-35.156,-87.402,0
1671211771.581,-5.371,-14.648,-21.484,-15.137,214.844,0
1671211771.584,-21.973,-13.672,-19.531,-6.836,162.109,0
1671211771.588,-41.016,-14.648,-21.484,-20.996,-110.840,0
1671211771.592,-32.715,-11.719,-20.996,-28.809,-136.230,0
1671211771.596,-10.742,-14.160,-14.160,-30.273,-122.070,0
1671211771.600,1.465,-11.719,-7.812,-19.531,-122.070,0
1671211771.600,-8.789,-6.836,-10.742,-16.602,-95.703,0
1671211771.604,-36.621,-14.160,-19.043,-21.484,-66.406,0
1671211771.608,-39.062,-16.113,-20.508,-18.555,-13.184,0
1671211771.612,-8.789,-11.719,-15.137,-17.090,-24.414,0
1671211771.616,5.371,-13.672,-18.555,-21.973,-140.625,2
1671211771.620,-14.160,-15.625,-22.461,-22.461,-65.430,0
1671211771.624,-34.668,-15.137,-18.555,-11.230,260.254,0
1671211771.627,-47.852,-18.555,-20.508,-21.484,165.527,0
1671211771.631,-28.809,-15.625,-26.367,-35.645,-114.746,0
1671211771.635,3.906,-14.160,-18.555,-20.020,0.000,0
1671211771.639,-4.395,-17.090,-12.207,-8.789,167.480,0
1671211771.643,-34.668,-14.648,-12.695,-17.578,-23.926,0
1671211771.660,-45.410,-15.137,-23.438,-32.715,-129.883,0
1671211771.664,-25.879,-16.602,-27.344,-39.062,-86.426,0
1671211771.668,-3.906,-15.137,-26.855,-32.715,-103.027,0
1671211771.672,-9.277,-18.555,-26.855,-31.738,-112.305,0
1671211771.676,-39.062,-19.043,-24.902,-32.227,-83.496,0
1671211771.680,-50.781,-13.672,-15.625,-32.715,-40.039,0
1671211771.684,-38.086,-12.207,-18.555,-37.109,41.992,0
1671211771.687,-21.973,-16.113,-27.832,-33.203,22.461,0
1671211771.691,-19.531,-18.555,-23.926,-25.391,-79.102,0
1671211771.695,-41.504,-19.531,-23.438,-20.508,84.961,0
1671211771.699,-60.547,-19.531,-23.926,-26.367,133.301,0
1671211771.703,-44.434,-16.113,-18.066,-35.645,-164.062,0
1671211771.705,-20.020,-14.648,-20.020,-37.598,-126.465,0
1671211771.709,-19.531,-20.020,-27.832,-40.039,13.672,0
1671211771.713,-41.016,-21.973,-29.785,-34.180,-16.602,0
1671211771.717,-61.523,-17.090,-27.832,-24.902,-102.051,0
1671211771.721,-52.246,-19.531,-26.855,-25.879,-128.418,0
1671211771.725,-19.531,-20.020,-23.438,-25.879,36.133,0
1671211771.729,-6.836,-12.695,-14.648,-17.090,76.660,0
1671211771.732,-32.715,-12.695,-15.625,-21.484,10.254,0
1671211771.736,-53.711,-13.672,-16.113,-23.438,120.117,0
1671211771.740,-47.363,-16.113,-19.043,-15.625,348.145,0
1671211771.744,-24.414,-19.043,-21.973,-14.648,232.910,0
1671211771.748,-9.277,-23.438,-20.508,-15.137,-71.777,0
1671211771.750,-32.715,-28.320,-22.461,-14.648,-113.770,0
1671211771.754,-64.453,-27.832,-24.902,-24.414,-112.305,0
1671211771.758,-61.523,-22.949,-20.996,-25.391,-163.086,0
1671211771.762,-29.297,-16.113,-16.602,-20.996,-169.434,0
1671211771.766,-2.930,-15.137,-23.926,-20.020,-148.926,0
1671211771.770,-25.391,-16.602,-28.320,-16.113,-7.324,0
1671211771.774,-58.594,-13.184,-25.879,-19.531,66.895,0
1671211771.777,-54.688,-16.113,-23.438,-29.297,-125.000,0
1671211771.781,-30.273,-22.461,-22.949,-27.344,-10.254,0
1671211771.785,-12.207,-19.531,-21.973,-19.043,96.680,0
1671211771.789,-19.531,-17.090,-18.066,-24.414,-104.980,0
1671211771.793,-50.781,-20.508,-14.648,-30.762,-0.977,0
1671211771.795,-59.570,-22.461,-16.602,-28.809,63.965,0
1671211771.799,-33.203,-21.973,-20.508,-34.668,-122.070,0
1671211771.803,-17.578,-21.484,-18.555,-33.691,-171.875,0
1671211771.807,-21.973,-23.438,-20.020,-24.414,-76.660,0
1671211771.811,-41.992,-21.973,-15.137,-20.508,-41.016,0
1671211771.815,-52.734,-15.137,-17.578,-24.414,-79.102,0
1671211771.819,-30.762,-15.625,-22.461,-36.133,-113.281,0
1671211771.822,-3.906,-20.508,-24.414,-36.133,25.391,0
1671211771.826,-3.906,-24.414,-30.762,-20.020,321.777,0
1671211771.830,-39.062,-23.438,-29.785,-22.461,168.945,0
1671211771.834,-53.711,-16.602,-25.879,-27.832,-135.254,0
1671211771.838,-32.715,-15.625,-31.250,-22.949,-149.414,0
1671211771.840,-10.254,-17.578,-33.203,-20.996,-118.164,0
1671211771.844,-6.836,-13.184,-30.273,-20.020,-111.328,0
1671211771.848,-31.250,-9.766,-25.879,-19.043,-56.152,0
1671211771.852,-50.293,-13.184,-25.879,-12.207,51.758,0
1671211771.856,-26.855,-17.090,-22.461,-7.812,-6.836,0
1671211771.860,0.977,-6.836,-18.066,-16.113,-92.773,0
1671211771.864,-12.695,2.930,-26.855,-28.809,-95.215,0
1671211771.867,-30.762,-0.488,-29.785,-16.113,127.441,0
1671211771.871,-52.734,-9.277,-26.367,-15.625,132.812,0
1671211771.875,-65.918,-19.531,-26.367,-42.480,-210.938,0
1671211771.879,-38.574,-17.578,-26.855,-44.434,-189.941,0
1671211771.883,-22.949,-15.625,-25.391,-31.250,-64.941,0
1671211771.886,-40.039,-19.531,-27.832,-25.391,-66.406,0
1671211771.890,-68.359,-19.531,-28.809,-20.508,-86.426,0
1671211771.894,-58.105,-15.625,-23.438,-20.996,-62.012,0
1671211771.898,-18.066,-16.113,-34.668,-33.203,-50.781,0
1671211771.902,-3.418,-15.625,-34.180,-31.738,-95.703,0
1671211771.906,-22.461,-15.625,-20.020,-21.973,-83.496,0
1671211771.910,-48.828,-18.066,-25.879,-22.949,116.211,0
1671211771.913,-54.688,-22.949,-36.621,-21.973,384.766,0
1671211771.917,-27.344,-24.414,-35.645,-26.367,226.562,0
1671211771.921,-5.371,-21.484,-31.250,-29.297,-106.934,0
1671211771.925,-16.602,-23.438,-26.367,-20.996,37.598,0
1671211771.929,-37.598,-22.949,-22.949,-15.137,141.602,0
1671211771.930,-38.086,-20.508,-17.090,-16.602,-95.703,0
1671211771.934,-11.230,-20.996,-15.137,-21.973,-167.969,0
1671211771.938,0.977,-24.902,-24.414,-31.738,-119.629,0
1671211771.942,-16.113,-27.832,-24.414,-22.461,-97.656,0
1671211771.946,-43.945,-25.391,-19.531,-21.484,-72.754,0
1671211771.950,-52.246,-18.555,-20.020,-31.250,20.508,0
1671211771.954,-30.273,-18.555,-19.043,-26.367,199.707,0
1671211771.957,-8.301,-19.043,-12.207,-24.902,163.086,0
1671211771.961,-17.090,-18.555,-21.973,-30.273,-56.641,0
1671211771.965,-50.781,-25.879,-32.715,-35.156,-74.219,0
1671211771.969,-61.035,-21.484,-28.809,-35.156,-9.277,0
1671211771.973,-40.527,-16.113,-25.391,-33.203,-83.008,0
1671211771.975,-20.996,-12.695,-21.973,-33.203,-143.066,0
1671211771.979,-14.648,-3.906,-12.207,-22.949,-86.914,0
1671211771.983,-34.180,-4.395,-19.043,-17.578,-57.129,0
1671211771.987,-59.082,-15.625,-29.785,-27.344,-96.191,0
1671211771.991,-45.410,-17.090,-23.926,-38.086,-144.531,0
1671211771.995,-19.043,-13.672,-19.043,-38.574,-2.930,0
1671211771.999,-16.113,-15.137,-19.531,-29.297,175.293,0
1671211772.002,-38.574,-14.648,-28.320,-29.297,88.867,0
1671211772.006,-60.547,-12.695,-32.715,-32.715,-102.051,0
1671211772.010,-48.340,-13.184,-29.785,-28.320,-75.195,0
1671211772.014,-19.043,-10.254,-29.785,-20.020,198.242,0
1671211772.018,-12.695,-8.301,-34.180,-21.484,95.703,0
1671211772.035,-28.320,-10.742,-31.250,-21.973,-68.359,0
1671211772.039,-51.758,-8.789,-21.973,-21.484,4.395,0
1671211772.043,-53.223,-10.742,-21.484,-23.926,-7.812,0
1671211772.047,-23.438,-12.207,-22.949,-20.996,-173.828,0
1671211772.051,-5.859,-6.836,-19.531,-20.508,-136.230,0
1671211772.055,-28.320,-5.371,-10.254,-14.648,5.371,0
1671211772.059,-51.758,-3.418,-12.207,-13.672,22.461,0
1671211772.062,-48.340,-6.836,-20.020,-24.414,-75.684,0
1671211772.066,-14.160,-9.277,-16.602,-28.320,-118.164,0
1671211772.070,11.230,-2.441,-22.461,-14.160,118.652,0
1671211772.074,-11.719,-7.324,-25.391,-12.207,138.672,0
1671211772.078,-40.527,-16.113,-16.602,-19.043,-100.586,0
1671211772.082,-41.504,-12.695,-17.578,-20.996,-116.211,0
1671211772.086,-17.090,-9.766,-14.648,-21.973,-104.980,0
1671211772.090,5.371,-12.695,-11.719,-14.160,-73.242,0
1671211772.094,-9.277,-15.137,-18.066,-12.207,-125.488,0
1671211772.098,-37.598,-16.113,-22.461,-7.812,-50.781,0
1671211772.102,-37.598,-14.648,-16.602,-1.465,132.324,0
1671211772.106,-16.602,-12.695,-20.020,-13.672,41.992,0
1671211772.109,-2.441,-11.719,-29.297,-19.531,-13.184,0
1671211772.113,-9.277,-12.695,-29.785,-6.836,108.398,0
1671211772.117,-40.039,-16.602,-26.367,3.418,359.863,0
1671211772.121,-54.199,-10.742,-14.648,-1.953,203.613,0
1671211772.125,-27.344,-7.812,-14.648,-12.695,-115.723,0
1671211772.126,-1.953,-17.090,-27.344,-16.602,-105.469,0
1671211772.130,-12.695,-21.973,-31.250,-14.648,-74.219,0
1671211772.134,-40.039,-24.414,-28.320,-13.672,-94.727,0
1671211772.138,-50.293,-20.996,-24.902,-11.719,-148.926,0
1671211772.142,-32.227,-17.578,-23.926,-7.812,-175.781,0
1671211772.146,-2.930,-18.066,-28.809,-10.254,-115.723,0
1671211772.150,2.930,-13.184,-28.809,-12.207,-39.062,0
1671211772.153,-27.344,-14.160,-26.367,-19.531,-20.996,0
1671211772.157,-48.340,-19.531,-18.555,-18.066,144.043,0
1671211772.161,-39.551,-14.648,-10.742,-13.184,208.984,0
1671211772.165,-16.113,-17.578,-12.695,-22.949,-84.961,0
1671211772.169,-12.207,-24.414,-18.555,-21.973,-123.535,0
1671211772.170,-41.504,-23.926,-20.996,-24.902,-47.363,0
1671211772.174,-64.941,-20.508,-22.949,-34.668,-123.535,0
1671211772.178,-46.387,-17.578,-20.508,-34.668,-170.898,0
1671211772.182,-8.789,-15.137,-12.695,-29.785,-112.305,0
1671211772.186,-6.348,-19.043,-18.066,-30.273,-44.922,0
1671211772.190,-37.598,-26.367,-26.855,-31.738,-25.391,0
1671211772.194,-65.430,-20.020,-31.738,-26.855,-22.461,0
1671211772.197,-61.523,-18.555,-24.414,-20.508,20.020,0
1671211772.201,-34.668,-22.949,-21.973,-11.719,333.496,0
1671211772.205,-26.367,-21.484,-26.367,-6.836,325.684,0
1671211772.209,-42.480,-18.555,-26.855,-9.766,-73.242,0
1671211772.213,-65.430,-18.555,-24.902,-13.672,-117.676,0
1671211772.215,-62.012,-17.578,-19.043,-20.508,-124.512,0
1671211772.219,-35.645,-11.719,-21.484,-33.691,-183.594,0
1671211772.223,-15.137,-11.230,-22.461,-29.785,-210.449,0
1671211772.227,-19.531,-16.602,-22.461,-25.391,-153.320,0
1671211772.231,-50.781,-21.973,-25.879,-36.133,-124.023,0
1671211772.235,-55.664,-26.367,-20.508,-37.598,-146.973,0
1671211772.239,-22.949,-25.879,-13.184,-34.180,-164.062,0
1671211772.242,0.977,-22.949,-18.066,-26.367,58.594,0
1671211772.246,-17.578,-23.438,-27.832,-18.066,127.441,0
1671211772.250,-52.246,-27.832,-32.227,-28.320,-115.723,0
1671211772.254,-53.711,-21.973,-23.438,-28.320,-75.684,0
1671211772.258,-29.297,-20.996,-21.484,-26.855,-52.246,0
1671211772.261,-5.859,-19.043,-24.902,-29.785,-101.562,0
1671211772.265,-16.113,-16.113,-19.043,-21.973,-70.312,0
1671211772.269,-46.875,-19.043,-20.508,-19.531,8.301,0
1671211772.273,-55.176,-17.090,-21.973,-29.297,14.160,0
1671211772.277,-27.344,-16.602,-22.949,-25.391,-135.254,0
1671211772.281,1.465,-18.555,-23.438,-17.090,-117.676,0
1671211772.285,-13.184,-20.996,-18.555,-18.555,100.098,0
1671211772.288,-35.156,-21.973,-25.879,-11.230,463.379,0
1671211772.292,-46.387,-15.625,-26.367,-20.020,271.973,0
1671211772.296,-35.645,-10.254,-22.461,-29.785,-144.043,0
1671211772.300,0.977,-11.719,-22.461,-18.555,-95.703,0
1671211772.304,0.000,-11.230,-18.066,-19.043,-21.973,0
1671211772.307,-26.855,-12.695,-20.020,-25.391,-87.891,0
1671211772.311,-41.992,-15.625,-22.461,-16.602,-83.008,0
1671211772.315,-34.668,-17.090,-23.438,-10.254,-7.812,0
1671211772.319,-3.906,-14.160,-19.043,-9.277,-58.594,0
1671211772.323,6.348,-12.207,-13.184,-5.859,-99.121,0
1671211772.327,-19.043,-12.207,-10.254,-5.371,-43.457,0
1671211772.331,-39.551,-12.207,-12.695,0.488,207.031,0
1671211772.334,-36.621,-12.695,-17.578,-2.930,219.727,0
1671211772.338,-15.137,-12.207,-20.020,-18.555,-162.598,0
1671211772.342,-3.906,-16.113,-13.672,-11.719,-151.367,0
1671211772.346,-21.484,-15.137,-16.113,-11.230,-8.301,0
1671211772.350,-45.898,-17.090,-24.414,-20.508,-41.504,0
1671211772.350,-46.875,-20.508,-26.367,-27.344,-118.164,0
1671211772.354,-17.090,-19.531,-18.066,-30.273,-139.160,0
1671211772.358,4.883,-13.672,-17.578,-20.508,-77.637,0
1671211772.362,-15.137,-11.719,-12.207,-11.719,-60.547,0
1671211772.366,-48.340,-16.602,-8.301,-17.090,-41.504,0
1671211772.370,-45.410,-15.625,-17.090,-23.926,86.426,0
1671211772.374,-15.137,-13.184,-17.578,-21.973,198.242,0
1671211772.377,2.930,-21.484,-18.555,-18.066,142.578,0
1671211772.381,-13.184,-20.508,-17.578,-14.648,56.641,0
1671211772.385,-41.016,-17.578,-21.484,-16.113,55.176,0
1671211772.389,-42.480,-19.043,-15.625,-14.648,162.598,0
1671211772.393,-22.949,-18.066,-10.254,-25.391,-22.461,0
1671211772.410,-7.324,-16.113,-19.043,-24.902,-120.605,0
1671211772.414,-12.207,-16.602,-15.625,-16.113,-14.648,0
1671211772.418,-32.715,-15.137,-16.113,-23.438,-66.406,0
1671211772.422,-48.340,-14.160,-27.832,-35.156,-140.625,0
1671211772.426,-28.320,-21.484,-31.250,-35.156,-164.551,0
1671211772.430,-1.953,-15.137,-23.926,-26.855,-1.953,0
1671211772.434,-13.184,-14.160,-20.996,-27.344,129.883,0
1671211772.437,-42.969,-20.996,-19.043,-24.414,-3.906,0
1671211772.441,-55.664,-18.066,-14.648,-29.785,-128.906,0
1671211772.445,-31.738,-12.207,-8.301,-23.926,71.289,0
1671211772.449,-7.812,-14.648,-10.254,-16.602,158.203,0
1671211772.453,-9.766,-13.184,-15.625,-24.414,-80.566,0
1671211772.455,-26.855,-7.812,-15.137,-19.043,-53.223,0
1671211772.459,-41.504,-12.207,-17.090,-28.809,-30.762,0
1671211772.463,-40.527,-16.602,-22.461,-39.551,-142.090,0
1671211772.467,-10.254,-20.996,-21.973,-32.715,-172.363,0
1671211772.471,-4.883,-21.484,-15.137,-24.414,-44.434,0
1671211772.475,-39.062,-20.996,-10.742,-28.809,43.457,0
1671211772.479,-49.316,-19.531,-18.555,-22.461,13.672,0
1671211772.482,-37.598,-15.137,-22.461,-24.902,0.488,0
1671211772.486,-13.672,-20.020,-12.207,-27.832,113.281,0
1671211772.490,-8.301,-23.926,-17.578,-20.508,72.266,0
1671211772.494,-30.762,-20.996,-25.391,-23.926,-56.152,0
1671211772.498,-55.664,-24.902,-23.926,-28.320,-97.168,0
1671211772.501,-50.781,-27.344,-21.484,-28.320,-21.484,0
1671211772.505,-25.391,-21.484,-17.090,-15.137,288.574,0
1671211772.509,-9.766,-17.090,-19.531,-16.602,134.277,0
1671211772.513,-26.367,-17.578,-21.973,-24.902,-95.215,0
1671211772.517,-50.781,-17.578,-15.137,-23.926,-67.383,0
1671211772.521,-51.270,-16.602,-11.719,-24.902,-40.527,1
1671211772.525,-25.879,-20.020,-15.625,-25.879,20.508,0
1671211772.528,-6.836,-20.996,-13.184,-23.926,-49.316,0
1671211772.532,-15.625,-18.555,-13.672,-16.113,63.965,0
1671211772.536,-39.062,-19.531,-26.367,-15.137,134.277,0
1671211772.540,-52.246,-19.531,-26.855,-28.320,-122.070,0
1671211772.544,-30.273,-18.066,-13.672,-30.762,-162.598,0
1671211772.547,-3.418,-20.020,-15.625,-22.949,-54.199,0
1671211772.551,-18.066,-26.855,-23.438,-24.902,30.762,0
1671211772.555,-48.340,-28.320,-27.832,-32.715,-49.805,0
1671211772.559,-44.434,-21.484,-20.508,-25.879,-102.051,0
1671211772.563,-21.973,-16.602,-12.695,-26.855,12.695,0
1671211772.567,-0.977,-15.625,-16.113,-25.391,2.930,0
1671211772.571,-7.812,-19.531,-17.578,-19.531,-3.418,0
1671211772.574,-38.086,-21.484,-16.113,-23.926,71.777,0
1671211772.578,-48.828,-20.020,-7.812,-11.230,318.359,0
1671211772.582,-31.738,-16.602,-5.371,-15.137,164.551,0
1671211772.586,-10.254,-18.555,-20.996,-28.809,-117.188,0
1671211772.590,-16.602,-22.461,-26.367,-20.508,14.160,0
1671211772.591,-50.781,-25.391,-22.949,-20.996,-28.809,0
1671211772.595,-65.918,-22.949,-20.020,-25.879,-168.945,0
1671211772.599,-41.016,-15.137,-14.160,-23.438,-202.637,0
1671211772.603,-15.625,-20.996,-16.113,-21.973,-157.227,0
1671211772.607,-16.113,-22.949,-15.137,-16.113,-110.840,0
1671211772.611,-45.410,-26.855,-20.020,-19.043,-82.031,0
1671211772.615,-64.941,-28.320,-27.344,-25.879,-84.473,0
1671211772.618,-48.340,-24.414,-28.809,-21.484,147.461,0
1671211772.622,-21.973,-30.273,-30.762,-23.438,289.062,0
1671211772.626,-15.625,-27.832,-23.926,-20.508,-20.508,0
1671211772.630,-38.086,-20.508,-23.438,-20.020,-149.902,0
1671211772.634,-61.523,-26.367,-27.344,-32.715,-109.375,0
1671211772.635,-53.223,-27.344,-27.344,-37.109,-174.805,0
1671211772.639,-19.531,-19.043,-28.320,-32.715,-208.008,0
1671211772.643,-4.883,-15.137,-20.996,-24.414,-97.168,0
1671211772.647,-27.344,-16.602,-22.949,-20.996,-56.152,0
1671211772.651,-60.059,-19.043,-27.832,-22.461,-90.820,0
1671211772.655,-47.852,-15.137,-18.555,-26.855,-129.883,0
1671211772.659,-8.301,-17.090,-20.020,-23.438,-54.688,0
1671211772.662,0.000,-18.066,-26.855,-15.625,270.996,0
1671211772.666,-25.879,-18.555,-23.926,-14.648,240.234,0
1671211772.670,-57.129,-24.902,-22.949,-16.113,-97.168,0
1671211772.674,-49.805,-20.020,-16.113,-19.043,-31.250,0
1671211772.678,-17.578,-14.160,-13.184,-19.531,129.883,0
1671211772.680,-5.371,-9.277,-13.184,-18.555,-53.223,0
1671211772.684,-15.625,-11.719,-15.625,-20.020,-91.309,0
1671211772.688,-37.109,-22.949,-18.066,-19.531,-104.980,0
1671211772.692,-38.086,-23.438,-20.996,-20.508,-182.129,0
1671211772.696,-9.766,-18.555,-18.066,-16.602,-193.848,0
1671211772.700,5.859,-20.020,-16.602,-14.160,-131.836,0
1671211772.704,-3.418,-18.555,-19.531,-2.441,184.082,0
1671211772.707,-36.621,-19.043,-18.066,-3.418,234.863,0
1671211772.711,-61.523,-24.414,-22.949,-27.832,-104.492,0
1671211772.715,-34.180,-21.484,-18.066,-28.320,-176.758,0
1671211772.719,-6.836,-19.043,-11.719,-24.414,-5.371,0
1671211772.723,-19.043,-18.066,-10.254,-20.020,43.457,0
1671211772.726,-43.457,-17.090,-12.695,-23.438,-96.191,0
1671211772.730,-49.316,-17.578,-22.949,-29.785,-80.078,0
1671211772.734,-31.738,-18.066,-25.879,-28.809,-28.809,0
1671211772.738,-11.230,-15.625,-29.297,-23.438,-76.660,0
1671211772.742,-7.324,-12.207,-24.902,-14.160,-129.395,0
1671211772.746,-31.250,-13.184,-16.113,-11.719,82.031,0
1671211772.750,-44.922,-10.254,-16.113,-15.625,289.551,0
1671211772.753,-37.109,-14.160,-18.555,-29.297,95.703,0
1671211772.757,-10.742,-17.090,-19.043,-30.273,-64.941,0
1671211772.761,-3.418,-16.113,-16.602,-14.160,20.508,0
1671211772.765,-34.668,-16.113,-20.020,-11.230,169.434,0
1671211772.769,-53.711,-11.230,-25.391,-38.086,-40.527,0
1671211772.785,-36.133,-12.207,-24.414,-39.062,-213.379,0
1671211772.789,-10.254,-19.531,-14.648,-26.855,-54.688,0
1671211772.793,-13.672,-19.531,-12.695,-26.367,-20.020,0
1671211772.797,-39.551,-18.555,-23.926,-22.461,-127.441,0
1671211772.801,-54.688,-16.602,-24.414,-20.020,-111.816,0
1671211772.805,-47.363,-15.625,-16.113,-14.648,21.973,0
1671211772.809,-20.020,-17.090,-13.672,-22.461,110.840,0
1671211772.812,-3.906,-16.602,-16.113,-27.344,-14.648,0
1671211772.816,-23.438,-19.043,-17.090,-19.043,-77.637,0
1671211772.820,-47.363,-16.113,-15.625,-10.742,49.805,0
1671211772.824,-45.410,-17.578,-18.066,-17.090,-3.906,0
1671211772.828,-15.625,-19.043,-21.484,-28.320,-206.543,0
1671211772.831,4.883,-13.672,-17.578,-15.137,-151.855,0
1671211772.835,-19.043,-18.066,-19.531,-14.648,-6.348,0
1671211772.839,-47.852,-14.648,-22.461,-24.414,-35.156,0
1671211772.843,-41.992,-7.324,-15.137,-20.020,-169.922,0
1671211772.847,-24.414,-15.137,-14.160,-21.484,-39.062,0
1671211772.851,-11.230,-20.508,-17.578,-20.996,101.074,0
1671211772.855,-24.414,-25.391,-25.879,-19.531,8.301,0
1671211772.858,-53.223,-22.461,-27.344,-21.973,-50.781,0
1671211772.862,-50.293,-17.578,-20.508,-24.414,-69.336,0
1671211772.866,-26.367,-23.438,-28.320,-23.438,202.148,0
1671211772.870,-5.371,-19.043,-33.691,-28.320,167.969,0
1671211772.874,-11.719,-14.648,-25.391,-30.762,-87.891,0
1671211772.876,-50.293,-20.020,-21.484,-33.203,-72.266,0
1671211772.880,-63.477,-19.043,-24.414,-36.133,-85.938,0
1671211772.884,-38.086,-22.461,-22.461,-37.109,-151.367,0
1671211772.888,-20.996,-25.879,-17.090,-31.250,-139.160,0
1671211772.892,-19.531,-20.996,-8.789,-13.672,-26.855,0
1671211772.896,-43.457,-24.414,-17.090,-20.508,57.617,0
1671211772.900,-62.988,-24.902,-24.414,-33.203,21.484,0
1671211772.903,-43.457,-21.973,-16.113,-33.203,-16.602,0
1671211772.907,-17.578,-22.949,-23.438,-20.508,179.199,0
1671211772.911,-19.531,-20.020,-27.344,-16.113,258.301,0
1671211772.915,-41.992,-16.602,-20.996,-22.949,-21.973,0
1671211772.919,-56.152,-19.531,-26.367,-29.297,-94.238,0
1671211772.921,-43.457,-24.902,-26.855,-36.621,-52.246,0
1671211772.925,-15.137,-20.508,-24.902,-26.855,-36.133,0
1671211772.929,-7.812,-13.672,-16.602,-16.113,-68.359,0
1671211772.933,-33.691,-22.461,-15.625,-16.602,-63.965,0
1671211772.937,-64.453,-25.879,-22.461,-21.484,-15.625,0
1671211772.941,-58.594,-22.461,-21.484,-21.484,-89.355,0
1671211772.945,-20.996,-20.020,-23.438,-24.414,-119.141,0
1671211772.948,-7.812,-17.578,-24.902,-16.602,42.480,0
1671211772.952,-31.250,-18.555,-22.461,3.906,400.879,0
1671211772.956,-58.105,-19.043,-17.090,-5.371,246.582,0
1671211772.960,-53.223,-19.043,-7.812,-23.438,-149.414,0
1671211772.964,-20.508,-23.926,-12.207,-19.531,-26.367,0
1671211772.965,-1.953,-22.461,-20.508,-14.648,27.344,0
1671211772.969,-19.043,-16.602,-15.625,-21.484,-122.070,0
1671211772.973,-48.828,-17.578,-20.020,-28.320,-125.977,0
1671211772.977,-47.363,-20.996,-22.949,-27.832,-123.047,0
1671211772.981,-20.508,-20.020,-11.719,-17.090,-138.672,0
1671211772.985,-8.789,-20.508,-17.578,-9.766,-60.547,0
1671211772.989,-22.949,-23.438,-22.949,-14.648,-9.766,0
1671211772.992,-46.875,-22.461,-11.719,-6.348,125.488,0
1671211772.996,-46.875,-17.578,-13.184,-10.254,119.141,0
1671211773.000,-14.648,-7.812,-20.508,-25.879,-155.273,0
1671211773.004,8.789,-10.254,-23.438,-26.855,-167.969,0
1671211773.008,-15.625,-23.438,-26.367,-32.227,-114.746,0
1671211773.012,-52.246,-24.902,-27.832,-26.855,-85.449,0
1671211773.016,-48.340,-20.508,-27.344,-22.461,-124.512,0
1671211773.020,-25.391,-22.461,-25.879,-27.832,-108.398,0
1671211773.024,-1.465,-20.020,-17.578,-13.184,34.180,0
1671211773.028,1.465,-15.137,-25.391,-15.137,2.930,0
1671211773.032,-26.855,-14.160,-24.414,-19.043,-52.246,0
1671211773.036,-39.062,-15.137,-20.996,-12.695,-20.020,0
1671211773.039,-10.742,-12.695,-22.949,-5.859,280.762,0
1671211773.043,14.648,-9.277,-17.578,-7.324,188.477,0
1671211773.047,5.371,-12.695,-14.160,-14.648,-179.199,0
1671211773.051,-25.879,-19.043,-15.625,-16.113,-111.816,0
1671211773.055,-37.598,-17.090,-21.973,-23.438,-103.027,0
1671211773.056,-23.438,-12.695,-16.113,-20.508,-234.863,0
1671211773.060,0.000,-14.160,-14.160,-16.113,-188.477,0
1671211773.064,0.488,-13.184,-9.277,-8.301,-73.242,0
1671211773.068,-29.785,-14.160,-7.324,-6.348,-56.641,0
1671211773.072,-56.152,-21.484,-19.531,-18.555,-1.953,0
1671211773.076,-49.316,-23.926,-21.973,-26.367,52.246,0
1671211773.080,-21.484,-20.996,-18.555,-13.184,260.742,0
1671211773.083,-15.625,-20.020,-17.578,0.000,306.641,0
1671211773.087,-43.457,-20.020,-15.625,-15.137,11.230,0
1671211773.091,-63.965,-20.020,-16.113,-25.879,-60.059,0
1671211773.095,-52.246,-14.160,-15.137,-21.973,-49.316,0
1671211773.099,-31.250,-15.625,-24.902,-27.344,-109.863,0
1671211773.100,-31.738,-21.484,-26.367,-24.414,-144.531,0
1671211773.104,-56.152,-21.973,-23.926,-23.926,-63.477,0
1671211773.108,-67.383,-19.043,-26.367,-30.762,-51.758,0
1671211773.112,-54.199,-19.531,-23.438,-33.691,-125.488,0
1671211773.116,-27.832,-18.555,-16.602,-32.227,-162.598,0
1671211773.120,-3.906,-13.184,-12.207,-17.578,6.836,0
1671211773.124,-17.578,-10.742,-12.695,-6.348,229.492,0
1671211773.127,-53.223,-20.020,-13.672,-18.555,136.719,0
1671211773.131,-52.246,-26.367,-15.625,-25.879,2.930,0
1671211773.135,-25.879,-21.973,-15.625,-23.926,48.340,0
1671211773.139,-11.230,-17.578,-14.160,-20.508,245.117,0
1671211773.143,-20.996,-14.648,-16.602,-17.578,85.449,0
1671211773.160,-41.992,-12.695,-20.020,-15.625,-151.855,0
1671211773.164,-48.828,-17.090,-23.926,-17.578,-94.727,0
1671211773.168,-32.227,-21.484,-27.832,-25.879,-120.605,0
1671211773.172,-6.348,-19.531,-26.855,-18.555,-177.734,0
1671211773.176,-12.695,-16.602,-25.391,-10.254,-129.395,0
1671211773.180,-38.574,-18.555,-18.555,-13.184,-5.371,0
1671211773.184,-37.598,-22.461,-15.137,-24.414,35.645,0
1671211773.187,-12.207,-17.090,-15.625,-30.762,-87.891,0
1671211773.191,10.742,-7.812,-19.531,-18.066,-179.688,0
1671211773.195,5.859,-10.742,-20.020,0.488,62.012,0
1671211773.199,-30.273,-14.648,-20.996,-5.859,173.340,0
1671211773.203,-48.340,-11.719,-21.484,-22.461,-109.863,0
1671211773.205,-26.855,-17.090,-17.578,-20.996,-202.148,0
1671211773.209,-8.301,-25.391,-16.113,-21.484,-97.168,0
1671211773.213,-18.555,-26.855,-24.414,-20.508,-39.062,0
1671211773.217,-42.480,-26.855,-24.902,-15.137,-94.238,0
1671211773.221,-54.688,-31.250,-17.578,-22.461,-71.289,0
1671211773.225,-32.715,-29.297,-19.531,-23.926,-28.320,0
1671211773.229,1.953,-24.902,-23.438,-16.113,4.395,0
1671211773.232,1.465,-26.855,-20.996,-10.254,31.738,0
1671211773.236,-19.043,-20.508,-13.672,-8.789,46.387,0
1671211773.240,-36.621,-20.996,-15.625,-14.160,281.738,0
1671211773.244,-41.504,-30.273,-22.949,-32.715,146.484,0
1671211773.248,-11.719,-32.227,-28.809,-34.668,-180.664,0
1671211773.251,0.000,-30.273,-31.250,-20.020,-105.469,0
1671211773.255,-27.344,-28.809,-30.273,-27.832,-14.160,0
1671211773.259,-45.898,-27.344,-23.926,-29.297,-97.656,0
1671211773.263,-29.297,-23.926,-19.043,-22.949,-189.453,0
1671211773.267,1.465,-23.926,-20.996,-20.508,-1.465,0
1671211773.271,-1.953,-24.902,-21.484,-31.250,121.582,0
1671211773.275,-34.668,-24.414,-20.508,-41.016,14.648,2
1671211773.278,-55.176,-25.391,-16.602,-38.086,-103.516,0
1671211773.282,-53.711,-31.250,-23.438,-26.855,72.754,0
1671211773.286,-27.832,-29.297,-22.949,-22.949,156.738,0
1671211773.290,-11.230,-25.391,-15.625,-32.227,-72.266,0
1671211773.294,-30.762,-28.809,-25.391,-29.785,-43.457,0
1671211773.296,-58.594,-30.273,-27.832,-26.855,-36.133,0
1671211773.300,-57.617,-31.250,-25.879,-34.668,-129.395,0
1671211773.304,-27.832,-28.809,-29.785,-38.086,-150.391,0
1671211773.308,-8.789,-29.297,-35.156,-24.902,14.648,0
1671211773.312,-29.297,-31.738,-32.715,-23.926,137.207,0
1671211773.316,-60.547,-29.297,-27.344,-29.785,49.805,0
1671211773.320,-66.895,-23.438,-28.320,-29.785,-66.406,0
1671211773.323,-37.598,-22.949,-18.555,-25.391,-47.852,0
1671211773.327,-10.742,-26.367,-14.160,-13.184,257.324,0
1671211773.331,-26.855,-23.926,-24.902,-22.949,158.203,0
1671211773.335,-59.570,-19.531,-20.996,-34.668,-206.543,0
1671211773.339,-67.871,-22.461,-18.066,-32.715,-193.359,0
1671211773.340,-45.410,-25.879,-20.508,-32.227,-191.895,0
1671211773.344,-21.973,-24.414,-22.461,-36.133,-224.121,0
1671211773.348,-26.367,-22.461,-22.949,-36.133,-147.949,0
1671211773.352,-51.758,-23.438,-22.461,-27.832,-146.973,0
1671211773.356,-60.547,-17.578,-22.949,-29.297,-202.148,0
1671211773.360,-39.551,-12.207,-21.973,-22.949,-146.484,0
1671211773.364,-6.348,-14.160,-20.508,-16.113,-131.836,0
1671211773.367,-8.789,-13.672,-18.555,-8.789,89.844,0
1671211773.371,-41.016,-14.648,-21.973,5.371,270.996,0
1671211773.375,-63.477,-21.973,-32.227,-10.742,-66.406,0
1671211773.379,-49.316,-23.926,-33.203,-25.391,-251.953,0
1671211773.383,-19.043,-22.949,-29.297,-22.949,-191.895,0
1671211773.385,-11.230,-20.020,-28.320,-22.949,-111.816,0
1671211773.389,-34.180,-14.648,-24.414,-20.996,-127.441,0
1671211773.393,-57.129,-18.066,-19.531,-23.438,-116.699,0
1671211773.397,-46.875,-16.602,-19.043,-24.414,-83.008,0
1671211773.401,-12.695,-17.090,-26.855,-17.090,-97.656,0
1671211773.405,-0.977,-21.484,-29.297,-14.648,-20.020,0
1671211773.409,-18.066,-18.555,-16.113,-10.742,82.520,0
1671211773.412,-37.109,-19.531,-18.555,-8.789,340.332,0
1671211773.416,-40.039,-20.996,-25.879,-23.926,219.238,0
1671211773.420,-16.602,-21.973,-27.832,-33.203,-152.832,0
1671211773.424,0.977,-20.508,-29.297,-19.531,52.246,0
1671211773.428,-19.531,-16.602,-28.809,-19.043,82.520,0
1671211773.430,-46.875,-16.602,-23.926,-30.273,-139.160,0
1671211773.434,-41.016,-17.578,-25.391,-31.738,-192.383,0
1671211773.438,-13.184,-17.578,-23.926,-29.785,-161.621,0
1671211773.442,8.789,-14.160,-20.996,-29.297,-95.215,0
1671211773.446,-3.418,-12.207,-20.996,-20.996,-83.008,0
1671211773.450,-31.250,-13.672,-20.020,-26.367,-40.039,0
1671211773.454,-34.180,-18.555,-22.461,-27.344,182.617,0
1671211773.457,-10.742,-20.020,-25.879,-21.973,187.988,0
1671211773.461,14.648,-13.184,-30.762,-30.273,-137.207,0
1671211773.465,4.395,-8.789,-22.949,-24.902,-152.832,0
1671211773.469,-32.227,-16.113,-23.926,-31.250,-92.773,0
1671211773.473,-37.598,-20.996,-30.273,-32.227,-125.977,0
1671211773.477,-12.695,-21.484,-30.762,-30.762,-124.023,0
1671211773.481,7.812,-18.066,-27.832,-23.438,-64.453,0
1671211773.485,-3.906,-17.578,-27.344,-9.766,12.695,0
1671211773.489,-32.227,-12.695,-25.879,-12.207,-70.312,0
1671211773.493,-44.434,-14.648,-30.762,-24.414,-188.965,0
1671211773.497,-23.926,-20.996,-35.645,-31.738,-58.105,0
1671211773.501,3.418,-18.555,-27.832,-20.020,134.766,0
1671211773.504,-1.953,-20.508,-26.367,-17.578,60.547,0
1671211773.508,-30.273,-21.973,-25.879,-31.250,-47.363,0
1671211773.512,-37.598,-21.484,-21.973,-26.855,-13.672,0
1671211773.516,-21.484,-23.438,-20.996,-20.020,105.957,0
1671211773.520,-2.441,-25.391,-25.391,-30.273,-95.703,0
1671211773.535,0.977,-22.949,-30.762,-30.273,-204.590,0
1671211773.539,-29.297,-22.461,-34.180,-30.273,-90.820,0
1671211773.543,-57.617,-18.555,-33.203,-42.969,-71.777,0
1671211773.547,-39.551,-20.996,-30.762,-41.992,-107.910,0
1671211773.551,-12.207,-27.832,-30.273,-35.645,-131.348,0
1671211773.555,-6.836,-25.879,-29.297,-24.902,130.859,0
1671211773.559,-27.832,-22.461,-26.855,-20.508,295.410,0
1671211773.562,-59.570,-19.531,-22.461,-34.180,-40.527,0
1671211773.566,-49.805,-20.508,-21.973,-29.785,-145.508,0
1671211773.570,-10.254,-23.438,-21.484,-19.531,-31.250,0
1671211773.574,3.418,-22.461,-18.066,-12.207,-25.391,0
1671211773.578,-20.996,-27.344,-24.902,-13.672,-80.078,0
1671211773.581,-46.875,-30.273,-30.273,-26.367,-106.934,0
1671211773.585,-38.574,-21.973,-22.949,-33.203,-90.820,0
1671211773.589,-5.859,-15.137,-23.926,-28.809,-97.656,0
1671211773.593,7.812,-15.625,-25.391,-26.367,-106.934,0
1671211773.597,-0.488,-18.555,-19.043,-18.555,-55.664,0
1671211773.601,-23.438,-17.578,-16.602,-14.648,79.102,0
1671211773.605,-30.762,-19.043,-16.602,-22.461,19.531,0
1671211773.608,-5.859,-18.555,-7.812,-27.344,-105.957,0
1671211773.612,11.719,-17.578,-20.020,-25.879,57.617,0
1671211773.616,2.930,-20.020,-26.367,-15.625,386.719,0
1671211773.620,-29.297,-22.949,-17.090,-18.066,326.172,0
1671211773.624,-33.691,-20.996,-19.531,-35.156,-32.715,0
1671211773.626,-2.930,-17.578,-14.160,-31.738,-116.699,0
1671211773.630,12.207,-19.043,-14.160,-27.832,-111.328,0
1671211773.634,3.418,-18.066,-22.461,-28.320,-119.141,0
1671211773.638,-25.879,-20.996,-20.508,-27.344,-119.629,0
1671211773.642,-44.434,-25.391,-17.090,-32.715,-132.812,0
1671211773.646,-24.902,-23.438,-15.625,-29.785,-138.184,0
1671211773.650,5.371,-19.043,-20.508,-9.277,-19.043,0
1671211773.653,7.324,-15.625,-19.531,-0.488,-44.434,0
1671211773.657,-32.715,-17.090,-10.254,-17.090,66.406,0
1671211773.661,-63.965,-21.973,-14.160,-39.551,158.203,0
1671211773.665,-51.758,-24.902,-20.508,-56.152,-139.648,0
1671211773.669,-21.973,-23.438,-16.113,-53.223,-194.336,0
1671211773.670,-23.438,-22.461,-18.066,-39.062,-60.059,0
1671211773.674,-49.316,-24.902,-19.043,-35.156,-71.289,0
1671211773.678,-66.895,-28.320,-11.230,-41.992,-188.477,0
1671211773.682,-48.828,-29.297,-13.672,-42.969,-210.938,0
1671211773.686,-15.625,-28.320,-19.043,-36.133,-118.164,0
1671211773.690,-11.719,-26.367,-20.508,-30.273,-31.738,0
1671211773.694,-37.598,-25.879,-23.926,-39.062,-43.457,0
1671211773.697,-64.453,-32.227,-22.949,-44.922,-24.414,0
1671211773.701,-58.105,-31.738,-20.996,-37.109,280.762,0
1671211773.705,-24.414,-22.461,-25.391,-37.109,91.309,0
1671211773.709,-11.230,-18.555,-22.461,-38.574,-265.137,0
1671211773.713,-34.180,-21.484,-11.719,-33.203,-220.703,0
1671211773.716,-57.129,-22.461,-13.672,-40.527,-235.352,0
1671211773.720,-49.805,-20.996,-20.996,-42.969,-289.551,0
1671211773.724,-22.461,-20.508,-33.691,-41.992,-319.336,0
1671211773.728,-16.602,-21.973,-34.668,-37.109,-185.059,0
1671211773.732,-40.039,-27.344,-23.926,-35.645,-82.520,0
1671211773.736,-63.965,-27.832,-23.926,-44.434,-137.207,0
1671211773.740,-57.617,-25.391,-20.996,-49.316,-208.008,0
1671211773.743,-24.902,-22.949,-10.742,-39.062,-46.875,0
1671211773.747,-5.859,-22.461,-13.672,-26.367,23.438,0
1671211773.751,-20.508,-19.043,-22.461,-31.250,-204.102,0
1671211773.755,-42.969,-21.973,-25.879,-32.715,-178.711,0
1671211773.759,-42.969,-24.902,-25.879,-35.645,-120.605,0
1671211773.761,-20.508,-23.926,-24.414,-38.574,-177.246,0
1671211773.765,-4.395,-25.879,-27.832,-35.645,-161.133,0
1671211773.769,-16.113,-20.996,-31.250,-30.762,-79.590,0
1671211773.773,-47.852,-23.438,-29.785,-31.250,19.043,0
1671211773.777,-53.711,-25.391,-32.227,-33.691,-16.113,0
1671211773.781,-20.996,-21.484,-27.344,-29.297,-44.434,0
1671211773.785,7.324,-19.531,-21.973,-22.461,76.660,0
1671211773.788,0.488,-21.973,-31.250,-11.230,395.508,0
1671211773.792,-32.227,-21.973,-30.762,-16.113,401.367,0
1671211773.796,-48.828,-22.949,-29.297,-33.691,-64.453,0
1671211773.800,-27.344,-21.973,-32.715,-29.785,-158.691,0
1671211773.804,-5.859,-20.996,-30.273,-23.926,-74.707,0
1671211773.806,-13.672,-21.973,-25.391,-19.531,-103.516,0
1671211773.810,-37.598,-20.020,-29.785,-19.043,-104.492,0
1671211773.814,-53.223,-22.949,-30.762,-21.973,-58.105,0
1671211773.818,-40.527,-27.344,-23.926,-23.926,-72.266,0
1671211773.822,-18.555,-28.809,-26.855,-24.414,-71.777,0
1671211773.826,-16.113,-30.762,-33.203,-24.414,5.859,0
1671211773.830,-35.645,-24.902,-29.297,-12.695,303.223,0
1671211773.833,-58.594,-22.949,-33.203,-14.160,417.480,0
1671211773.837,-52.734,-31.738,-39.062,-37.109,-5.859,0
1671211773.841,-16.602,-25.879,-29.785,-31.738,-90.820,0
1671211773.845,-10.742,-21.484,-27.832,-23.438,87.891,0
1671211773.849,-37.109,-19.531,-29.297,-26.367,87.402,0
1671211773.850,-49.316,-14.648,-26.367,-24.902,-49.316,0
1671211773.854,-35.156,-13.672,-24.902,-23.926,-86.914,0
1671211773.858,-14.648,-14.648,-27.832,-22.461,-41.992,0
1671211773.862,-8.789,-15.625,-31.250,-24.414,-8.301,0
1671211773.866,-24.414,-14.160,-23.926,-20.020,30.273,0
1671211773.870,-46.875,-10.254,-17.578,-12.695,130.371,0
1671211773.874,-43.945,-6.836,-20.508,-12.207,232.422,0
1671211773.877,-19.043,-5.371,-28.320,-6.348,125.977,0
1671211773.881,-4.883,-3.906,-24.902,-2.441,56.641,0
1671211773.885,-22.949,-7.812,-14.648,-5.859,192.383,0
1671211773.889,-61.035,-18.066,-24.902,-5.371,393.066,0
1671211773.893,-59.570,-20.020,-31.738,-11.230,174.316,0
1671211773.910,-26.367,-13.184,-22.461,-15.625,-43.457,0
1671211773.914,-10.742,-13.184,-22.949,-13.184,23.926,0
1671211773.918,-28.320,-17.090,-29.785,-15.137,60.547,0
1671211773.922,-57.129,-15.137,-28.320,-9.766,58.105,0
1671211773.926,-58.105,-12.207,-27.832,-15.137,40.527,0
1671211773.930,-40.039,-13.672,-34.180,-24.414,116.699,0
1671211773.934,-23.926,-18.555,-39.062,-15.625,203.613,0
1671211773.937,-31.250,-19.043,-35.645,-6.348,112.793,0
1671211773.941,-55.176,-17.578,-36.621,-7.812,-43.457,0
1671211773.945,-61.035,-19.531,-38.574,-8.301,158.203,0
1671211773.949,-39.551,-14.648,-30.762,-12.207,149.902,0
1671211773.953,-12.207,-14.648,-27.344,-16.602,-106.934,0
1671211773.955,-18.555,-19.531,-30.762,-10.254,27.344,0
1671211773.959,-48.340,-18.555,-26.855,-7.324,90.332,0
1671211773.963,-65.918,-20.508,-24.414,-16.113,-40.527,0
1671211773.967,-47.852,-21.484,-30.273,-23.926,-78.125,0
1671211773.971,-15.137,-15.137,-21.973,-15.137,16.602,0
1671211773.975,-16.602,-12.207,-20.508,-5.859,172.363,0
1671211773.979,-42.969,-14.648,-26.855,-10.742,163.086,0
1671211773.982,-55.176,-14.648,-25.391,-13.672,94.238,0
1671211773.986,-36.621,-9.766,-26.855,-12.695,98.633,0
1671211773.990,-4.883,-10.254,-25.879,-3.906,362.793,0
1671211773.994,0.488,-8.301,-20.508,-7.324,304.688,0
1671211773.998,-27.344,-6.348,-23.438,-19.531,5.371,0
1671211774.000,-52.246,-11.719,-23.926,-19.531,23.438,0
1671211774.004,-41.504,-12.207,-17.578,-16.113,-20.996,0
1671211774.008,-13.672,-9.766,-13.672,-17.578,-106.934,0
1671211774.012,-11.230,-14.160,-27.344,-24.414,-91.309,0
1671211774.016,-43.945,-15.625,-37.598,-23.926,20.020,0
1671211774.020,-73.730,-16.113,-27.344,-16.602,7.812,0
1671211774.024,-62.500,-18.066,-23.926,-24.414,-28.809,0
1671211774.027,-28.320,-14.160,-28.809,-34.180,-102.539,0
1671211774.031,-14.160,-12.207,-20.508,-19.043,46.387,0
1671211774.035,-34.180,-16.113,-9.766,-11.719,165.039,0
1671211774.039,-54.688,-19.043,-17.090,-21.973,-140.625,0
1671211774.043,-44.434,-16.602,-19.043,-23.438,-200.195,0
1671211774.045,-12.695,-12.207,-11.719,-21.484,-107.422,0
1671211774.049,5.371,-5.859,-6.836,-20.508,-139.648,0
1671211774.053,-17.090,-8.789,-10.254,-20.996,-153.809,0
1671211774.057,-50.781,-20.508,-19.043,-22.461,-119.141,0
1671211774.061,-49.316,-15.625,-23.926,-23.926,-125.488,0
1671211774.065,-20.996,-12.695,-21.973,-20.020,-67.871,0
1671211774.069,-3.906,-17.090,-18.555,-14.160,-34.668,0
1671211774.072,-12.207,-15.137,-16.602,-6.836,19.531,0
1671211774.076,-37.109,-16.113,-9.766,2.930,377.930,0
1671211774.080,-44.434,-21.484,-14.160,-10.254,319.824,0
1671211774.084,-16.602,-17.578,-14.160,-16.113,-83.984,1
1671211774.088,7.812,-13.672,-6.836,-13.184,-114.746,0
1671211774.090,-2.930,-13.672,-8.301,-13.672,-139.648,0
1671211774.094,-29.297,-14.648,-18.555,-13.184,-218.262,0
1671211774.098,-36.133,-18.066,-20.508,-16.602,-189.941,0
1671211774.102,-19.531,-19.531,-25.391,-21.484,-180.176,0
1671211774.106,1.953,-15.625,-28.320,-22.949,-148.926,0
1671211774.110,9.766,-10.254,-15.137,-9.277,-72.754,0
1671211774.114,-15.625,-13.672,-15.137,-11.230,-24.902,0
1671211774.117,-37.109,-15.625,-18.555,-15.625,144.531,0
1671211774.121,-15.137,-15.137,-20.508,-18.555,120.605,0
1671211774.125,4.883,-14.160,-29.785,-30.273,-97.656,0
1671211774.129,2.441,-11.230,-16.113,-24.902,-85.938,0
1671211774.133,-21.973,-15.137,-9.766,-16.602,-10.742,0
1671211774.136,-42.480,-16.113,-19.043,-26.367,-64.453,0
1671211774.140,-25.879,-12.695,-22.949,-31.738,-179.688,0
1671211774.144,4.395,-13.184,-29.297,-23.926,-103.516,0
1671211774.148,8.789,-16.113,-27.344,-18.066,-38.086,0
1671211774.152,-20.020,-19.043,-21.973,-18.555,-119.629,0
1671211774.156,-36.621,-18.555,-21.973,-22.461,-97.656,0
1671211774.160,-27.344,-20.020,-25.391,-28.320,8.789,0
1671211774.163,-1.465,-21.973,-25.391,-28.320,302.246,0
1671211774.167,4.883,-17.578,-14.648,-24.414,210.449,0
1671211774.171,-27.832,-20.996,-17.090,-35.645,-154.297,0
1671211774.175,-57.129,-21.973,-31.738,-45.410,-72.754,0
1671211774.179,-52.734,-21.484,-34.668,-43.945,-30.762,0
1671211774.181,-27.344,-23.438,-35.645,-44.434,-90.332,0
1671211774.185,-14.648,-24.414,-33.691,-37.598,-148.438,0
1671211774.189,-25.391,-17.090,-25.879,-18.555,-28.809,0
1671211774.193,-44.922,-7.812,-26.367,-21.484,18.066,0
1671211774.197,-46.387,-15.625,-31.738,-35.645,-159.180,0
1671211774.201,-25.391,-22.461,-30.273,-39.062,-155.762,0
1671211774.205,0.977,-21.484,-26.855,-26.367,175.293,0
1671211774.208,-14.160,-20.996,-23.438,-25.391,306.641,0
1671211774.212,-41.504,-15.137,-14.648,-33.691,-11.719,0
1671211774.216,-41.016,-17.090,-12.695,-27.344,-99.121,0
1671211774.220,-22.461,-26.367,-27.344,-30.762,-18.555,0
1671211774.224,-4.395,-25.879,-37.109,-36.133,22.461,0
1671211774.225,-17.090,-22.949,-35.645,-29.297,-52.734,0
1671211774.229,-45.410,-21.973,-30.273,-25.879,-95.703,0
1671211774.233,-50.293,-23.438,-23.438,-24.414,-64.941,0
1671211774.237,-23.438,-23.438,-21.484,-23.926,-39.062,0
1671211774.241,-3.906,-25.879,-30.762,-33.203,-38.574,0
1671211774.245,-10.742,-27.344,-28.320,-26.367,52.734,0
1671211774.249,-38.086,-27.344,-30.273,-14.160,411.133,0
1671211774.252,-52.246,-21.973,-40.039,-27.344,334.473,0
1671211774.256,-29.785,-19.531,-31.250,-37.109,-93.750,0
1671211774.260,-11.230,-21.973,-20.508,-31.738,-42.969,0
1671211774.264,-14.648,-23.926,-20.508,-26.855,80.078,0
1671211774.268,-39.551,-26.367,-20.508,-33.203,-138.184,0
1671211774.285,-59.082,-20.020,-16.602,-35.156,-215.332,0
1671211774.289,-38.086,-21.484,-20.020,-36.621,-159.180,0
1671211774.293,-11.230,-29.785,-25.879,-35.645,-115.234,0
1671211774.297,-9.766,-25.391,-21.484,-27.344,-128.418,0
1671211774.301,-29.297,-20.020,-15.625,-21.484,-95.703,0
1671211774.305,-52.734,-22.461,-10.742,-24.902,36.621,0
1671211774.309,-44.922,-25.391,-14.160,-28.320,65.430,0
1671211774.312,-13.672,-22.949,-20.020,-24.414,50.781,0
1671211774.316,-11.230,-25.391,-23.926,-27.344,-52.734,0
1671211774.320,-43.457,-34.180,-26.855,-20.996,138.672,0
1671211774.324,-65.430,-31.250,-24.902,-12.695,266.602,0
1671211774.328,-59.570,-23.438,-27.344,-27.344,-102.539,0
1671211774.330,-29.297,-25.879,-22.461,-28.809,-161.621,0
1671211774.334,-12.207,-28.809,-17.578,-21.484,-78.613,0
1671211774.338,-31.738,-26.855,-19.531,-18.555,-97.168,0
1671211774.342,-53.711,-20.996,-14.160,-18.555,-127.441,0
1671211774.346,-38.574,-12.207,-11.230,-24.414,-125.488,0
1671211774.350,-7.812,-10.254,-22.461,-22.461,-61.523,0
1671211774.354,5.371,-15.625,-26.855,-15.625,-43.945,0
1671211774.357,-20.020,-16.113,-25.879,-21.973,16.602,0
1671211774.361,-59.570,-13.672,-33.203,-25.391,65.918,0
1671211774.365,-51.270,-12.695,-37.109,-7.324,276.367,0
1671211774.369,-27.832,-8.301,-31.250,-4.883,267.578,0
1671211774.373,-20.020,-6.348,-21.973,-11.230,-8.789,0
1671211774.375,-24.902,-11.719,-17.090,-2.441,-26.367,0
1671211774.379,-45.410,-14.648,-17.578,-4.395,-15.137,0
1671211774.383,-53.711,-15.625,-22.949,-19.043,-41.992,0
1671211774.387,-33.203,-15.137,-22.461,-26.367,-70.312,0
1671211774.391,1.465,-10.742,-22.461,-20.508,-48.828,0
1671211774.395,-4.395,-11.230,-19.531,-16.602,51.758,0
1671211774.399,-44.922,-16.602,-26.855,-20.020,83.984,0
1671211774.402,-52.734,-18.066,-35.645,-23.926,-17.090,0
1671211774.406,-19.043,-17.578,-28.809,-14.648,-0.977,0
1671211774.410,8.789,-14.160,-23.438,-9.766,-0.977,0
1671211774.414,-7.324,-16.602,-23.438,-15.137,-112.305,0
1671211774.418,-43.457,-19.531,-23.438,-19.531,-71.777,0
1671211774.421,-52.734,-21.484,-23.438,-18.066,197.754,0
1671211774.425,-30.762,-20.996,-20.996,-24.414,155.762,0
1671211774.429,-8.301,-17.578,-22.949,-33.203,-91.797,0
1671211774.433,-13.184,-15.137,-20.020,-21.484,-4.883,0
1671211774.437,-33.691,-16.602,-14.160,-13.672,24.414,0
1671211774.441,-51.270,-20.508,-17.090,-14.160,-34.180,0
1671211774.445,-40.527,-21.484,-21.484,-16.113,-10.254,0
1671211774.448,-4.883,-19.531,-22.949,-14.160,68.848,0
1671211774.452,1.465,-19.531,-24.902,-6.836,311.523,0
1671211774.456,-27.832,-19.531,-27.344,-18.066,157.227,0
1671211774.460,-49.316,-12.207,-18.066,-30.762,-181.152,0
1671211774.464,-39.062,-13.672,-15.625,-22.949,-170.898,0
1671211774.466,-6.348,-15.137,-19.043,-19.043,-154.785,0
1671211774.470,-1.953,-12.695,-24.414,-19.531,-150.879,0
1671211774.474,-25.879,-17.090,-28.320,-17.090,-116.699,0
1671211774.478,-50.781,-24.414,-25.879,-19.043,-56.152,0
1671211774.482,-46.387,-21.973,-23.926,-33.203,-120.605,0
1671211774.486,-18.066,-21.973,-22.461,-35.156,-117.188,0
1671211774.490,-6.348,-20.508,-26.367,-28.320,-80.566,0
1671211774.493,-22.461,-13.184,-28.320,-16.602,55.664,0
1671211774.497,-46.875,-14.160,-28.320,-19.531,104.980,0
1671211774.501,-40.039,-15.625,-26.855,-30.273,-180.176,0
1671211774.505,-12.695,-17.578,-30.273,-31.738,-162.109,0
1671211774.509,-0.488,-21.484,-28.809,-26.855,-37.109,0
1671211774.510,-19.043,-21.484,-25.391,-18.066,-68.359,0
1671211774.514,-47.852,-19.043,-24.414,-22.461,-130.371,0
1671211774.518,-55.176,-23.926,-24.902,-31.738,-134.277,0
1671211774.522,-21.484,-26.855,-27.832,-29.297,-86.426,0
1671211774.526,0.488,-19.531,-23.926,-26.855,-50.293,0
1671211774.530,-14.160,-23.438,-30.273,-25.879,9.766,0
1671211774.534,-33.691,-25.391,-26.367,-13.672,92.773,0
1671211774.537,-46.875,-23.926,-21.973,-10.742,317.383,0
1671211774.541,-31.738,-20.020,-30.762,-24.414,249.023,0
1671211774.545,-7.324,-18.555,-27.832,-20.996,-99.609,0
1671211774.549,-12.207,-22.461,-26.855,-10.742,-16.602,0
1671211774.553,-38.086,-23.438,-28.809,-17.090,110.352,0
1671211774.556,-51.758,-23.926,-24.414,-22.461,-76.172,0
1671211774.560,-32.227,-26.855,-21.973,-28.809,-123.047,0
1671211774.564,-4.883,-19.531,-13.672,-21.484,-62.500,0
1671211774.568,-11.230,-15.625,-10.742,-16.602,-45.898,0
1671211774.572,-37.598,-20.508,-23.926,-28.809,-48.340,0
1671211774.576,-50.781,-18.066,-27.832,-30.273,-20.996,0
1671211774.580,-32.715,-19.043,-29.297,-30.762,170.898,0
1671211774.583,-7.812,-24.414,-35.645,-35.156,174.805,0
1671211774.587,-10.742,-21.973,-40.527,-43.945,-102.539,0
1671211774.591,-37.598,-19.531,-34.668,-38.574,-74.707,0
1671211774.595,-52.734,-23.926,-26.367,-28.809,-20.020,0
1671211774.599,-28.809,-18.066,-21.484,-33.203,-88.379,0
1671211774.600,-1.953,-15.625,-21.973,-39.551,-178.711,0
1671211774.604,2.930,-13.184,-24.414,-38.574,-118.164,0
1671211774.608,-21.484,-11.719,-21.973,-32.227,-40.039,0
1671211774.612,-47.363,-16.113,-18.066,-28.809,-50.781,0
1671211774.616,-36.133,-20.996,-20.996,-32.227,-121.582,0
1671211774.620,-7.812,-23.438,-24.902,-29.785,5.371,0
1671211774.624,-0.488,-20.508,-26.855,-25.391,271.484,0
1671211774.627,-26.855,-19.043,-32.227,-26.367,117.676,0
1671211774.631,-50.293,-16.113,-33.691,-32.715,12.207,0
1671211774.635,-41.992,-14.160,-26.855,-30.273,97.168,0
1671211774.639,-16.113,-18.066,-20.508,-23.926,119.629,0
1671211774.643,-0.488,-11.230,-19.531,-20.020,-13.184,0
1671211774.647,-20.020,-7.324,-17.090,-20.508,-67.383,0
1671211774.651,-44.922,-11.230,-14.160,-24.414,17.578,0
1671211774.655,-45.410,-9.766,-12.695,-28.809,-21.973,0
1671211774.659,-19.043,-15.137,-17.090,-28.809,-169.434,0
1671211774.663,2.930,-17.090,-19.043,-15.137,-162.109,0
1671211774.667,-19.531,-12.207,-14.648,-9.766,-24.902,0
1671211774.671,-50.293,-11.719,-12.695,-14.648,108.887,0
1671211774.674,-47.852,-14.648,-17.090,-22.949,-75.684,0
1671211774.678,-19.531,-21.973,-16.602,-25.879,-219.238,0
1671211774.682,-3.418,-25.879,-21.973,-24.414,51.758,0
1671211774.686,-25.391,-26.855,-32.227,-21.973,129.395,0
1671211774.690,-53.223,-25.391,-23.926,-19.531,-56.152,0
1671211774.706,-62.500,-29.297,-20.508,-32.227,-107.422,0
1671211774.710,-34.668,-25.391,-20.020,-35.645,-110.840,0
1671211774.714,2.441,-18.066,-20.020,-20.508,-104.004,0
1671211774.718,-6.836,-22.461,-19.043,-12.207,-125.977,0
1671211774.722,-35.156,-26.855,-9.277,-8.301,-77.637,0
1671211774.726,-42.480,-24.902,-5.859,-16.602,116.211,0
1671211774.730,-28.320,-20.020,-21.484,-30.762,61.523,0
1671211774.733,4.395,-17.090,-29.297,-24.414,-110.840,0
1671211774.737,6.836,-13.672,-20.996,-18.066,-41.504,0
1671211774.741,-25.391,-12.207,-16.113,-11.719,261.230,0
1671211774.745,-45.898,-9.277,-11.719,-17.090,98.145,0
1671211774.749,-33.203,-9.277,-17.090,-25.879,-186.035,0
1671211774.750,-3.906,-15.137,-20.508,-18.555,-83.496,0
1671211774.754,-1.953,-17.090,-16.602,-12.695,-83.008,0
1671211774.758,-29.785,-20.508,-16.113,-11.719,-161.621,0
1671211774.762,-42.969,-22.461,-16.602,-9.277,-176.270,0
1671211774.766,-26.367,-18.066,-14.160,-10.254,-99.121,0
1671211774.770,-10.254,-12.207,-16.602,-16.113,-12.695,0
1671211774.774,-2.930,-8.789,-28.809,-17.578,13.184,0
1671211774.777,-22.461,-9.766,-33.203,-15.137,-22.949,0
1671211774.781,-51.758,-14.160,-30.273,-15.137,112.305,0
1671211774.785,-41.992,-15.625,-30.762,-21.484,220.215,0
1671211774.789,-12.695,-16.602,-26.367,-25.879,-112.305,0
1671211774.793,3.906,-21.973,-26.855,-17.090,-172.852,0
1671211774.795,-14.160,-20.508,-29.297,-12.695,-73.242,0
1671211774.799,-56.152,-22.949,-27.344,-23.438,-98.633,0
1671211774.803,-52.246,-24.902,-25.879,-30.762,-104.004,0
1671211774.807,-13.672,-21.484,-24.414,-25.391,-72.754,0
1671211774.811,-1.465,-24.902,-30.273,-25.879,-22.949,0
1671211774.815,-26.367,-27.832,-40.527,-20.508,29.297,0
1671211774.819,-54.688,-24.414,-35.156,-16.113,-0.977,0
1671211774.822,-47.852,-26.855,-26.855,-20.996,-30.273,0
1671211774.826,-15.625,-25.879,-30.762,-14.160,360.352,0
1671211774.830,-3.418,-17.578,-20.996,-0.488,397.949,0
1671211774.834,-14.648,-14.160,-20.020,3.418,-27.832,0
1671211774.838,-35.156,-16.113,-30.762,-4.883,-100.586,0
1671211774.840,-51.758,-21.973,-24.902,-21.484,-150.391,0
1671211774.844,-26.367,-24.414,-21.484,-23.438,-226.074,0
1671211774.848,4.395,-18.555,-18.066,-14.648,-160.156,0
1671211774.852,-0.488,-14.648,-14.160,-6.836,-117.676,0
1671211774.856,-35.645,-20.508,-19.531,-10.254,-112.305,0
1671211774.860,-54.199,-22.461,-26.367,-16.602,-75.195,0
1671211774.864,-27.344,-20.996,-32.715,-17.090,-93.750,0
1671211774.867,5.371,-29.785,-33.691,-9.766,63.965,0
1671211774.871,-4.395,-25.391,-30.762,-4.395,134.277,0
1671211774.875,-32.715,-19.043,-27.344,-13.672,-89.355,0
1671211774.879,-36.133,-19.043,-23.926,-10.742,-122.070,0
1671211774.883,-23.438,-16.113,-17.090,-7.324,-104.492,0
1671211774.886,-3.418,-15.625,-19.043,-14.160,-115.234,0
1671211774.890,-6.836,-20.020,-27.344,-17.090,-139.160,0
1671211774.894,-39.062,-32.227,-25.879,-13.184,-77.637,0
1671211774.898,-56.152,-30.762,-20.020,-14.160,10.254,0
1671211774.902,-35.645,-26.855,-23.926,-23.926,-60.059,0
1671211774.906,-11.230,-32.715,-25.879,-23.926,-65.918,0
1671211774.910,-7.324,-26.367,-21.973,-16.113,46.875,0
1671211774.913,-28.320,-24.414,-22.461,-7.324,386.230,0
1671211774.917,-49.316,-25.879,-22.949,-14.648,310.547,0
1671211774.921,-39.551,-15.137,-19.531,-29.297,-147.461,0
1671211774.925,-5.371,-12.207,-14.648,-16.113,-112.305,0
1671211774.929,11.719,-16.113,-11.719,-6.348,-91.797,0
1671211774.931,-21.973,-15.625,-13.672,-14.160,-127.441,0
1671211774.935,-54.199,-22.461,-23.926,-21.973,-108.398,0
1671211774.939,-45.898,-21.484,-26.367,-26.367,-18.555,0
1671211774.943,-24.414,-16.113,-19.531,-25.879,-70.801,0
1671211774.947,-4.395,-14.648,-12.695,-15.625,-139.648,0
1671211774.951,-18.555,-16.113,-18.555,-15.137,-35.156,0
1671211774.955,-46.387,-14.648,-22.461,-23.438,166.992,0
1671211774.958,-41.992,-9.766,-14.160,-21.973,200.195,0
1671211774.962,-11.230,-8.301,-14.160,-32.227,-92.285,0
1671211774.966,7.812,-5.859,-11.719,-29.785,-104.492,0
1671211774.970,-11.230,-9.766,-13.672,-18.066,-50.293,0
1671211774.974,-38.086,-15.137,-14.160,-22.461,-121.094,0
1671211774.975,-37.598,-19.531,-17.090,-20.020,-180.176,2
1671211774.979,-9.766,-22.461,-24.414,-8.789,-110.352,0
1671211774.983,10.742,-16.602,-22.949,-12.695,-52.734,0
1671211774.987,-8.789,-10.742,-16.113,-25.879,-104.492,0
1671211774.991,-37.598,-10.254,-16.602,-27.344,-187.500,0
1671211774.995,-45.410,-17.578,-21.484,-21.973,-91.309,0
1671211774.999,-25.391,-21.973,-19.531,-20.996,111.328,0
1671211775.002,0.488,-22.949,-18.555,-21.973,24.414,0
1671211775.006,-4.883,-19.531,-16.602,-18.555,10.254,0
1671211775.010,-30.762,-16.602,-22.949,-25.391,97.656,0
1671211775.014,-37.598,-20.996,-26.855,-24.414,249.512,0
1671211775.018,-19.043,-22.949,-25.879,-24.902,115.234,0
1671211775.036,7.324,-15.137,-20.996,-27.344,-163.086,0
1671211775.040,6.836,-9.277,-13.672,-18.066,-119.629,0
1671211775.044,-30.273,-14.160,-13.672,-19.043,-82.031,0
1671211775.048,-46.387,-16.113,-20.508,-30.762,-157.227,0
1671211775.052,-19.531,-13.184,-30.762,-31.738,-167.480,0
1671211775.056,2.441,-14.648,-28.320,-25.391,21.484,0
1671211775.060,-6.836,-17.578,-21.973,-22.949,37.598,0
1671211775.063,-27.344,-18.066,-20.508,-14.648,-72.754,0
1671211775.067,-48.828,-18.066,-19.043,-15.137,-106.445,0
1671211775.071,-37.109,-18.555,-16.113,-19.043,71.777,0
1671211775.075,-3.906,-20.996,-12.695,-15.625,158.691,0
1671211775.079,-5.371,-20.996,-13.184,-17.090,-81.543,0
1671211775.080,-27.832,-19.043,-15.625,-12.207,-83.984,0
1671211775.084,-41.016,-20.020,-15.625,-13.672,-72.266,0
1671211775.088,-29.297,-20.020,-14.648,-27.344,-160.156,0
1671211775.092,-4.883,-20.508,-16.113,-30.762,-160.645,0
1671211775.096,-3.906,-26.367,-15.137,-20.508,-40.527,0
1671211775.100,-28.320,-26.855,-17.578,-12.207,82.520,0
1671211775.104,-52.734,-24.414,-24.414,-22.949,61.035,0
1671211775.107,-48.828,-24.414,-22.461,-26.855,-31.738,0
1671211775.111,-13.672,-17.578,-9.766,-18.555,0.488,0
1671211775.115,0.977,-17.090,-8.789,-0.977,303.711,0
1671211775.119,-27.832,-25.879,-14.648,-6.836,255.371,0
1671211775.123,-58.594,-26.367,-17.090,-28.809,-93.750,0
1671211775.125,-49.805,-27.344,-20.508,-26.367,-44.922,0
1671211775.129,-23.438,-25.879,-22.949,-26.855,-49.316,0
1671211775.133,-12.207,-22.949,-21.973,-30.273,-157.715,0
1671211775.137,-20.508,-20.508,-20.996,-24.902,-78.613,0
1671211775.141,-45.898,-14.648,-23.438,-21.973,-57.129,0
1671211775.145,-48.828,-17.090,-21.973,-28.320,14.160,0
1671211775.149,-19.531,-23.926,-13.672,-32.227,-35.156,0
1671211775.152,0.488,-20.508,-8.301,-28.809,-168.945,0
1671211775.156,-12.695,-16.602,-18.555,-20.020,88.379,0
1671211775.160,-44.922,-19.531,-29.297,-20.020,141.113,0
1671211775.164,-56.152,-14.648,-27.832,-38.574,-210.938,0
1671211775.168,-25.879,-12.695,-20.020,-42.480,-210.449,0
1671211775.172,-0.977,-16.602,-14.648,-27.344,-86.914,0
1671211775.176,-11.230,-14.160,-18.066,-15.137,-34.180,0
1671211775.180,-42.969,-12.695,-15.625,-24.902,-31.250,0
1671211775.184,-53.711,-15.625,-11.230,-29.785,-63.477,0
1671211775.188,-41.016,-22.461,-20.020,-30.762,-30.273,0
1671211775.192,-16.602,-20.020,-24.414,-27.832,-2.441,0
1671211775.196,-4.395,-13.672,-16.113,-16.602,-19.531,0
1671211775.199,-31.250,-15.625,-11.719,-14.648,58.594,0
1671211775.203,-50.781,-16.602,-8.301,-6.836,340.332,0
1671211775.207,-33.691,-13.672,-7.324,-11.719,181.152,0
1671211775.211,-9.766,-15.137,-18.555,-26.367,-147.461,0
1671211775.215,-7.812,-17.578,-18.555,-22.461,-61.035,0
1671211775.215,-31.250,-13.672,-11.230,-20.020,-46.387,0
1671211775.219,-56.152,-15.625,-15.625,-27.832,-170.898,0
1671211775.223,-48.340,-19.043,-24.414,-37.598,-216.797,0
1671211775.227,-10.254,-18.066,-21.484,-35.645,-147.949,0
1671211775.231,1.953,-20.508,-21.484,-26.367,-136.719,0
1671211775.235,-30.273,-21.484,-26.855,-21.484,-104.980,0
1671211775.239,-57.129,-20.020,-30.273,-35.645,-111.816,0
1671211775.242,-38.086,-18.555,-29.785,-20.508,121.582,0
1671211775.246,-10.742,-19.043,-20.508,-5.371,266.602,0
1671211775.250,-12.695,-19.531,-20.508,-30.762,-21.484,0
1671211775.254,-29.297,-18.555,-27.832,-24.902,-94.238,0
1671211775.258,-53.223,-20.508,-25.879,-19.043,-71.289,0
1671211775.260,-50.293,-22.949,-26.855,-30.273,-128.418,0
1671211775.264,-10.254,-18.555,-20.020,-14.648,-125.488,0
1671211775.268,6.348,-18.066,-11.719,-1.953,-35.156,0
1671211775.272,-25.879,-21.973,-13.672,-16.113,-28.809,0
1671211775.276,-63.477,-22.949,-20.020,-33.203,-69.336,0
1671211775.280,-62.988,-24.902,-18.555,-34.180,-17.090,0
1671211775.284,-24.414,-25.879,-15.625,-26.367,86.914,0
1671211775.287,0.488,-23.926,-25.391,-14.648,380.371,0
1671211775.291,-7.324,-19.043,-27.344,-8.301,333.984,0
1671211775.295,-35.156,-20.508,-20.020,-8.789,-96.191,0
1671211775.299,-41.016,-23.438,-13.184,-7.324,-77.637,0
1671211775.303,-10.254,-21.973,-16.113,-3.906,30.762,0
1671211775.305,6.836,-22.461,-18.555,-8.789,-112.305,0
1671211775.309,-7.324,-20.020,-14.160,-13.672,-124.023,0
1671211775.313,-41.992,-26.367,-15.625,-6.836,-90.820,0
1671211775.317,-50.781,-31.250,-18.555,-11.230,-121.094,0
1671211775.321,-21.973,-25.391,-23.926,-20.996,-158.691,0
1671211775.325,4.395,-22.461,-21.973,-9.766,-106.445,0
1671211775.329,-3.906,-27.344,-13.672,-5.859,240.723,0
1671211775.332,-37.109,-29.785,-22.949,-12.207,313.477,0
1671211775.336,-48.340,-26.855,-27.344,-20.508,-70.312,0
1671211775.340,-25.879,-27.344,-15.625,-21.973,-137.695,0
1671211775.344,-3.906,-31.250,-17.090,-15.625,-85.449,0
1671211775.348,-3.418,-27.832,-22.949,-12.207,-62.988,0
1671211775.351,-24.414,-22.461,-17.090,-7.324,-66.406,0
1671211775.355,-46.387,-26.367,-14.648,-11.719,-102.051,0
1671211775.359,-31.250,-25.879,-18.555,-14.160,-50.781,0
1671211775.363,0.977,-24.414,-19.043,-12.207,-84.961,0
1671211775.367,9.277,-20.996,-19.043,-10.742,-169.922,0
1671211775.371,-20.020,-20.020,-15.137,-8.301,20.508,0
1671211775.375,-42.480,-19.531,-15.625,-14.648,248.535,0
1671211775.378,-34.180,-15.137,-26.855,-22.461,33.203,0
1671211775.382,-12.207,-20.020,-27.344,-22.461,-170.898,0
1671211775.386,2.441,-22.461,-23.438,-11.230,10.742,0
1671211775.390,-17.090,-14.160,-23.438,-2.930,179.688,0
1671211775.394,-44.434,-12.207,-22.461,-19.043,-55.664,0
1671211775.411,-32.227,-11.719,-22.949,-29.785,-177.734,0
1671211775.415,2.930,-12.695,-21.484,-23.438,-72.266,0
1671211775.419,9.766,-16.113,-17.578,-22.461,20.996,0
1671211775.423,-14.160,-11.230,-21.484,-22.461,-36.621,0
1671211775.427,-36.133,-10.254,-21.973,-13.184,-133.789,0
1671211775.431,-39.062,-19.531,-20.996,-14.160,138.672,0
1671211775.435,-15.137,-20.020,-23.438,-17.578,264.160,0
1671211775.438,-0.977,-17.578,-21.484,-23.926,-76.660,0
1671211775.442,-24.902,-21.973,-18.066,-26.367,-136.719,0
1671211775.446,-51.270,-23.926,-20.996,-22.949,-37.109,0
1671211775.450,-47.363,-18.066,-23.438,-27.344,-89.844,0
1671211775.454,-15.625,-18.555,-14.160,-24.414,-201.172,0
1671211775.455,7.324,-20.996,-11.230,-15.137,-151.855,0
1671211775.459,-13.672,-20.508,-21.484,-19.043,-33.203,0
1671211775.463,-42.480,-18.066,-21.973,-24.414,-82.520,0
1671211775.467,-46.875,-15.137,-22.461,-35.156,-161.133,0
1671211775.471,-24.902,-15.625,-25.879,-39.062,-84.961,0
1671211775.475,-3.418,-18.555,-26.855,-26.367,1.953,0
1671211775.479,-10.254,-18.066,-26.367,-18.555,-3.418,0
1671211775.482,-35.645,-15.137,-15.137,-19.531,-18.555,0
1671211775.486,-45.410,-18.555,-11.230,-25.391,50.293,0
1671211775.490,-25.879,-27.832,-20.020,-18.555,345.703,0
1671211775.494,-7.324,-21.484,-16.602,-18.555,239.258,0
1671211775.498,-10.742,-14.160,-11.230,-25.391,-101.074,0
1671211775.500,-30.273,-14.648,-20.020,-17.578,-105.469,0
1671211775.504,-48.828,-16.113,-27.344,-22.949,-78.125,0
1671211775.508,-33.691,-15.625,-25.879,-26.367,-108.398,0
1671211775.512,-4.883,-11.230,-27.832,-18.555,-86.914,0
1671211775.516,-3.906,-7.812,-27.832,-10.254,-29.297,0
1671211775.520,-24.414,-12.695,-19.531,-9.277,-0.488,0
1671211775.524,-48.340,-15.137,-11.719,-23.926,2.930,0
1671211775.527,-53.711,-11.230,-12.695,-43.457,-78.613,0
1671211775.531,-23.438,-11.719,-22.949,-34.668,98.633,0
1671211775.535,-15.625,-19.531,-36.133,-24.414,227.539,0
1671211775.539,-47.852,-21.484,-34.668,-41.016,-18.066,0
1671211775.543,-62.988,-13.184,-27.832,-45.410,-70.312,0
1671211775.545,-45.898,-9.277,-26.855,-44.922,-95.215,0
1671211775.549,-14.160,-17.578,-24.902,-48.828,-129.883,0
1671211775.553,-9.766,-21.484,-23.438,-41.016,-111.328,0
1671211775.557,-33.691,-19.531,-24.902,-31.250,-78.613,0
1671211775.561,-55.664,-18.555,-21.973,-28.320,-41.016,0
1671211775.565,-52.734,-19.531,-24.414,-34.668,-5.859,0
1671211775.569,-16.602,-17.090,-25.879,-38.574,-2.441,0
1671211775.572,0.000,-18.066,-24.902,-29.785,-6.348,0
1671211775.576,-26.855,-23.438,-23.926,-19.531,311.523,0
1671211775.580,-56.152,-20.020,-19.531,-22.461,235.840,0
1671211775.584,-50.781,-20.996,-17.090,-31.738,-73.242,0
1671211775.588,-25.391,-21.973,-26.367,-29.785,81.055,0
1671211775.590,-19.531,-22.949,-33.203,-25.391,78.613,0
1671211775.594,-36.133,-28.320,-26.855,-26.855,-93.750,0
1671211775.598,-57.617,-28.809,-25.391,-25.391,-81.543,0
1671211775.602,-54.199,-23.926,-22.461,-25.391,-63.477,0
1671211775.606,-21.484,-20.508,-20.020,-27.832,-67.383,0
1671211775.610,-2.930,-25.391,-22.949,-23.926,-2.930,0
1671211775.614,-21.484,-25.391,-18.066,-27.832,-18.066,0
1671211775.617,-45.898,-18.066,-19.043,-25.391,113.770,0
1671211775.621,-45.410,-17.578,-20.996,-18.555,179.199,0
1671211775.625,-26.855,-19.043,-18.555,-28.809,-98.145,0
1671211775.629,-7.324,-19.531,-14.160,-26.855,-138.672,0
1671211775.633,-13.184,-21.484,-18.555,-13.672,-51.270,0
1671211775.636,-41.504,-19.531,-26.855,-9.766,-51.270,0
1671211775.640,-56.641,-18.555,-26.367,-26.367,-62.012,0
1671211775.644,-37.598,-21.484,-22.461,-38.086,-27.832,0
1671211775.648,-9.277,-18.555,-15.137,-27.832,10.254,0
1671211775.652,-16.602,-14.160,-9.277,-23.438,-39.062,0
1671211775.656,-41.504,-10.254,-8.789,-20.996,-77.148,0
1671211775.660,-57.129,-13.672,-12.695,-27.832,4.883,0
1671211775.663,-40.039,-19.531,-20.020,-29.297,344.727,0
1671211775.667,-8.789,-19.531,-16.602,-20.508,228.516,0
1671211775.671,-3.418,-20.020,-13.184,-20.020,-162.109,0
1671211775.675,-25.391,-16.602,-20.020,-16.602,-111.816,0
1671211775.679,-56.641,-19.531,-20.508,-20.508,-93.262,0
1671211775.680,-50.293,-21.484,-25.391,-26.855,-170.898,0
1671211775.684,-16.602,-14.160,-23.926,-25.879,-124.512,0
1671211775.688,-11.230,-10.742,-21.484,-21.973,-15.625,0
1671211775.692,-36.621,-16.602,-22.949,-20.508,-21.484,0
1671211775.696,-59.082,-22.461,-22.461,-31.250,-37.598,0
1671211775.700,-50.781,-21.484,-17.090,-40.039,-89.355,0
1671211775.704,-14.648,-25.391,-13.672,-20.996,58.105,0
1671211775.707,-5.859,-24.902,-26.367,-14.160,266.602,0
1671211775.711,-34.180,-15.625,-24.414,-27.344,7.324,0
1671211775.715,-52.246,-19.531,-24.902,-31.738,-160.645,0
1671211775.719,-37.109,-20.996,-23.438,-30.273,-130.859,0
1671211775.723,-5.371,-13.672,-21.484,-28.320,-128.418,0
1671211775.725,5.371,-12.695,-21.484,-30.273,-157.227,0
1671211775.729,-13.672,-20.020,-19.043,-26.855,-101.074,0
1671211775.733,-42.969,-20.020,-22.949,-21.484,-41.504,0
1671211775.737,-49.316,-17.578,-16.602,-22.949,-108.887,0
1671211775.741,-25.391,-18.555,-11.230,-32.227,-180.176,0
1671211775.745,-8.789,-21.484,-22.949,-28.320,-46.875,0
1671211775.749,-23.926,-26.367,-30.762,-16.113,167.969,0
1671211775.752,-41.992,-23.926,-20.020,-15.625,-7.324,0
1671211775.756,-43.457,-24.902,-16.602,-17.090,-86.426,0
1671211775.760,-27.344,-27.344,-17.578,-18.555,89.355,0
1671211775.764,-0.488,-25.391,-13.184,-7.812,286.621,0
1671211775.768,-11.719,-22.461,-20.020,-5.371,131.348,0
1671211775.785,-44.434,-16.602,-26.855,-17.578,-121.582,0
1671211775.789,-47.363,-15.625,-22.461,-26.855,-65.918,0
1671211775.793,-20.020,-18.555,-17.090,-22.949,-73.242,0
1671211775.797,3.906,-13.184,-16.602,-16.113,-99.609,0
1671211775.801,-4.395,-9.766,-18.066,-13.672,-75.684,0
1671211775.805,-29.785,-13.184,-15.137,-10.254,20.996,0
1671211775.809,-46.875,-18.555,-19.043,-21.973,36.621,0
1671211775.812,-34.180,-19.531,-21.484,-23.438,-67.383,0
1671211775.816,-5.859,-17.090,-16.113,-11.719,-139.160,0
1671211775.820,-6.836,-22.949,-20.508,-13.184,73.242,0
1671211775.824,-31.250,-25.391,-22.461,-22.461,139.160,0
1671211775.828,-47.363,-19.043,-18.066,-22.949,-81.543,0
1671211775.830,-36.621,-19.531,-23.438,-20.020,-113.281,0
1671211775.834,-10.254,-20.996,-27.832,-20.508,-59.082,0
1671211775.838,-5.371,-20.020,-23.438,-16.602,-47.852,0
1671211775.842,-30.273,-19.531,-21.484,-18.066,-25.879,0
1671211775.846,-48.340,-21.973,-22.949,-21.484,-54.688,0
1671211775.850,-35.156,-26.367,-16.113,-24.414,21.484,0
1671211775.854,-4.395,-17.090,-14.160,-25.391,61.523,0
1671211775.857,0.000,-19.531,-24.414,-25.879,12.207,0
1671211775.861,-27.344,-30.762,-23.438,-25.879,-13.672,0
1671211775.865,-47.363,-28.809,-26.367,-27.832,189.453,0
1671211775.869,-42.480,-20.020,-22.949,-32.715,215.332,0
1671211775.873,-14.648,-19.043,-15.625,-25.879,-105.469,0
1671211775.877,-5.859,-21.484,-16.113,-20.996,-103.516,0
1671211775.881,-33.203,-23.926,-17.578,-22.949,-32.227,0
1671211775.885,-54.688,-26.367,-16.602,-16.602,-81.543,2
1671211775.889,-50.293,-31.738,-16.113,-18.555,-156.250,0
1671211775.893,-25.879,-32.227,-18.555,-15.137,-39.551,0
1671211775.897,-3.906,-24.414,-17.090,-3.906,42.969,0
1671211775.901,-15.625,-23.926,-18.555,-9.277,-49.805,0
1671211775.904,-46.387,-24.902,-21.973,-22.461,-98.145,0
1671211775.908,-44.922,-26.367,-16.113,-20.508,36.621,0
1671211775.912,-10.254,-22.949,-16.602,-10.254,46.387,0
1671211775.916,9.277,-16.113,-18.555,-13.184,-185.059,0
1671211775.920,-1.465,-15.625,-9.766,-14.648,-166.992,0
1671211775.920,-30.762,-16.602,-9.277,-16.113,-155.273,0
1671211775.924,-49.316,-24.414,-21.973,-26.855,-189.941,0
1671211775.928,-27.344,-20.508,-22.461,-30.762,-214.844,0
1671211775.932,-0.977,-15.137,-20.020,-17.090,-158.691,0
1671211775.936,-6.836,-14.160,-16.602,-3.418,-6.836,0
1671211775.940,-35.156,-13.184,-18.066,-13.672,12.207,0
1671211775.944,-44.434,-10.742,-26.367,-29.297,-75.195,0
1671211775.947,-23.438,-4.395,-26.855,-28.809,-28.809,0
1671211775.951,1.465,4.395,-23.926,-10.742,326.172,0
1671211775.955,-3.418,7.812,-14.648,-2.930,330.078,0
1671211775.959,-39.062,-0.488,-8.301,-15.137,-79.590,0
1671211775.963,-62.012,-11.230,-18.066,-28.320,-160.156,0
1671211775.966,-48.828,-14.648,-24.902,-30.273,-130.371,0
1671211775.970,-15.625,-13.672,-23.438,-22.949,-127.930,0
1671211775.974,-13.672,-12.207,-27.832,-23.438,-93.750,0
1671211775.978,-38.574,-11.230,-26.367,-24.902,-91.797,0
1671211775.982,-51.270,-12.207,-20.508,-26.855,-111.816,0
1671211775.986,-37.598,-9.277,-22.949,-25.879,-56.152,0
1671211775.990,-10.254,-7.812,-20.020,-19.531,-43.457,0
1671211775.993,-6.348,-12.695,-18.555,-4.883,216.797,0
1671211775.997,-32.715,-16.113,-21.973,-1.465,374.023,0
1671211776.001,-54.688,-18.555,-19.043,-10.254,-32.227,0
1671211776.005,-40.039,-20.020,-18.066,-9.766,-192.383,0
1671211776.009,-7.812,-12.695,-17.090,-7.324,-153.809,0
1671211776.010,-5.859,-10.254,-19.531,-4.395,-120.117,0
1671211776.014,-34.180,-18.555,-21.484,-6.348,-92.773,0
1671211776.018,-56.641,-20.020,-19.043,-13.184,-75.684,0
1671211776.022,-53.223,-15.625,-20.020,-24.902,-95.215,0
1671211776.026,-21.484,-14.160,-20.508,-25.879,-79.590,0
1671211776.030,-0.977,-12.695,-15.625,-10.742,-34.180,0
1671211776.034,-15.137,-10.254,-10.254,-5.371,23.926,0
1671211776.037,-48.340,-13.184,-11.719,-13.184,411.621,0
1671211776.041,-47.363,-11.719,-19.043,-22.949,289.062,0
1671211776.045,-14.648,-13.184,-19.531,-30.762,-184.082,0
1671211776.049,1.465,-29.297,-18.066,-21.973,-43.945,0
1671211776.053,-9.277,-27.832,-23.438,-8.301,87.402,0
1671211776.055,-32.227,-18.555,-27.344,-10.742,-114.746,0
1671211776.059,-38.574,-20.996,-35.645,-20.508,-183.594,0
1671211776.063,-15.625,-21.484,-32.715,-25.879,-101.074,0
1671211776.067,-0.977,-22.949,-22.949,-20.508,-109.863,0
1671211776.071,-13.184,-18.555,-21.973,-12.695,-130.859,0
1671211776.075,-30.762,-13.672,-17.578,-14.648,-70.801,0
1671211776.079,-30.762,-17.578,-16.113,-15.625,160.645,0
1671211776.082,-4.395,-17.578,-21.484,-14.160,181.152,0
1671211776.086,15.625,-15.625,-22.461,-24.414,-92.285,0
1671211776.090,5.859,-17.578,-16.113,-18.066,-102.051,0
1671211776.094,-22.461,-21.973,-22.461,-14.160,-75.195,0
1671211776.098,-27.832,-18.066,-26.855,-24.902,-116.211,0
1671211776.101,-6.348,-14.160,-20.996,-37.109,-198.730,0
1671211776.105,18.555,-18.555,-22.461,-32.227,-109.375,0
1671211776.109,15.137,-22.461,-22.949,-17.090,69.824,0
1671211776.113,-11.719,-18.555,-5.859,-13.184,-51.758,0
1671211776.117,-35.156,-21.484,-3.906,-18.066,-160.156,0
1671211776.121,-19.043,-27.832,-18.066,-23.438,12.695,0
1671211776.125,11.719,-24.414,-17.578,-20.508,158.691,0
1671211776.128,8.301,-22.461,-16.113,-17.090,33.691,0
1671211776.132,-20.996,-22.949,-17.578,-16.602,-89.355,0
1671211776.136,-31.250,-17.090,-19.531,-17.578,-88.867,0
1671211776.140,-11.230,-15.625,-14.648,-16.113,110.840,0
1671211776.144,14.648,-15.137,-8.789,-20.508,-28.809,0
1671211776.160,17.578,-15.625,-19.531,-28.320,-220.703,0
1671211776.164,-5.371,-16.113,-25.391,-21.484,-131.836,0
1671211776.168,-28.809,-18.555,-18.066,-18.555,-140.137,0
1671211776.172,-26.855,-20.508,-22.461,-24.414,-229.980,0
1671211776.176,-1.465,-20.508,-20.020,-23.926,-168.457,0
1671211776.180,16.602,-19.531,-15.137,-5.371,68.848,0
1671211776.184,-5.859,-18.555,-21.484,-3.418,226.074,0
1671211776.187,-39.551,-19.043,-24.414,-25.879,-77.148,0
1671211776.191,-31.738,-20.508,-21.484,-29.297,-276.367,0
1671211776.195,-14.160,-19.531,-24.414,-33.691,-229.980,0
1671211776.199,-8.301,-19.043,-24.414,-39.551,-238.770,0
1671211776.203,-18.555,-18.066,-22.461,-37.598,-255.859,0
1671211776.205,-41.992,-19.043,-31.250,-37.598,-237.793,0
1671211776.209,-41.504,-18.555,-27.344,-37.598,-225.098,0
1671211776.213,-11.230,-12.207,-20.020,-35.156,-290.039,0
1671211776.217,9.277,-7.812,-23.438,-34.668,-330.078,0
1671211776.221,3.418,-11.230,-27.344,-31.738,-249.512,0
1671211776.225,-25.879,-15.625,-28.320,-35.645,-151.855,0
1671211776.229,-34.668,-19.043,-26.855,-38.574,-196.289,0
1671211776.232,-4.883,-19.531,-22.461,-35.156,-244.629,0
1671211776.236,19.531,-8.301,-24.902,-29.785,-97.168,0
1671211776.240,8.789,-5.371,-25.879,-13.672,156.738,0
1671211776.244,-22.461,-13.672,-22.949,-15.625,93.750,0
1671211776.248,-37.598,-13.672,-22.949,-36.621,-223.633,0
1671211776.250,-15.625,-15.625,-21.484,-34.668,-303.223,0
1671211776.254,10.742,-14.648,-20.020,-24.902,-296.387,0
1671211776.258,0.977,-15.137,-25.879,-26.855,-331.543,0
1671211776.262,-30.273,-20.508,-28.809,-31.738,-295.898,0
1671211776.266,-48.340,-25.391,-28.809,-36.621,-289.062,0
1671211776.270,-29.297,-26.367,-24.414,-36.133,-196.777,0
1671211776.274,-0.977,-23.926,-27.344,-32.227,-220.215,0
1671211776.277,-9.766,-21.973,-28.320,-35.645,-357.910,0
1671211776.281,-31.738,-24.414,-22.949,-33.203,-133.789,0
1671211776.285,-42.480,-29.297,-31.250,-29.785,-36.133,0
1671211776.289,-30.273,-20.996,-31.250,-34.180,-320.801,0
1671211776.293,-1.953,-16.602,-20.020,-32.227,-353.027,0
1671211776.296,1.465,-18.066,-24.902,-22.461,-206.543,0
1671211776.300,-39.551,-21.484,-34.180,-24.902,-250.977,0
1671211776.304,-65.918,-25.391,-28.809,-40.527,-413.086,0
1671211776.308,-42.480,-16.602,-19.531,-44.434,-454.590,0
1671211776.312,-13.672,-12.207,-22.461,-32.715,-418.457,0
1671211776.316,-1.953,-16.602,-25.391,-23.926,-304.199,0
1671211776.320,-18.066,-13.672,-20.020,-24.414,-229.492,0
1671211776.323,-44.434,-13.672,-14.648,-19.531,-156.250,0
1671211776.327,-44.922,-20.996,-21.484,-18.066,-117.188,0
1671211776.331,-17.090,-18.066,-20.996,-18.555,-297.363,0
1671211776.335,-0.488,-13.184,-20.020,-17.090,-408.203,0
1671211776.339,-28.320,-26.367,-32.227,-20.996,-283.203,0
1671211776.341,-62.988,-32.715,-28.320,-22.949,8.789,0
1671211776.345,-62.500,-21.973,-18.555,-30.762,-156.250,0
1671211776.349,-35.645,-24.902,-18.555,-34.180,-462.891,0
1671211776.353,-20.996,-26.367,-20.996,-25.879,-346.191,0
1671211776.357,-44.922,-20.020,-26.367,-25.391,-289.551,0
1671211776.361,-78.613,-23.926,-26.367,-35.645,-417.969,0
1671211776.365,-75.684,-25.879,-17.578,-45.410,-510.742,0
1671211776.368,-41.016,-23.438,-12.695,-37.598,-317.871,0
1671211776.372,-20.996,-20.996,-8.789,-30.273,-238.281,0
1671211776.376,-31.250,-11.719,-19.043,-36.133,-495.117,0
1671211776.380,-54.688,-16.113,-30.273,-45.410,-557.129,0
1671211776.384,-59.570,-20.020,-24.902,-46.387,-601.562,0
1671211776.386,-33.691,-9.277,-24.414,-42.480,-648.438,0
1671211776.390,-6.836,-10.742,-18.066,-39.551,-675.781,0
1671211776.394,-21.484,-19.043,-19.531,-41.992,-661.621,0
1671211776.398,-53.711,-22.461,-24.902,-43.457,-557.617,0
1671211776.402,-60.547,-23.438,-29.785,-42.480,-560.059,0
1671211776.406,-36.133,-20.996,-31.738,-48.828,-654.297,0
1671211776.410,-5.859,-21.973,-26.367,-41.504,-618.164,0
1671211776.413,-11.230,-20.020,-22.461,-25.879,-282.227,0
1671211776.417,-42.969,-21.973,-21.484,-26.367,-279.297,0
1671211776.421,-54.199,-21.484,-26.855,-39.551,-715.820,0
1671211776.425,-36.621,-17.090,-25.391,-50.781,-820.312,0
1671211776.429,-15.625,-17.090,-23.926,-51.270,-803.711,0
1671211776.431,-19.043,-20.508,-26.855,-40.039,-820.801,0
1671211776.435,-49.316,-27.832,-20.020,-37.598,-809.570,0
1671211776.439,-63.965,-25.391,-19.531,-41.992,-761.719,0
1671211776.443,-41.504,-21.973,-20.508,-39.551,-792.480,0
1671211776.447,-1.953,-22.461,-16.602,-26.855,-785.156,0
1671211776.451,3.418,-22.949,-14.648,-18.555,-701.172,0
1671211776.455,-18.555,-24.414,-16.602,-5.859,-460.449,0
1671211776.458,-37.109,-19.531,-15.625,-1.953,-291.016,0
1671211776.462,-31.250,-17.578,-9.277,-16.602,-639.160,0
1671211776.466,0.000,-20.508,-11.230,-16.113,-751.465,0
1671211776.470,14.648,-16.113,-17.578,-9.766,-596.191,0
1671211776.474,-7.812,-14.160,-18.555,-13.672,-625.488,0
1671211776.475,-39.062,-19.043,-20.508,-19.531,-662.109,0
1671211776.479,-32.715,-20.508,-19.531,-25.879,-659.668,0
1671211776.483,0.977,-20.020,-14.648,-28.809,-631.836,0
1671211776.487,15.137,-20.508,-10.254,-24.414,-556.641,0
1671211776.491,-3.906,-22.461,-17.578,-22.461,-531.250,0
1671211776.495,-34.668,-21.973,-26.855,-21.484,-426.270,0
1671211776.499,-24.414,-18.066,-20.020,-9.277,-204.102,0
1671211776.502,7.324,-19.531,-15.625,-13.184,-315.430,0
1671211776.506,18.066,-24.902,-17.578,-17.090,-521.973,0
1671211776.510,6.348,-22.461,-16.602,-11.230,-388.184,0
1671211776.514,-24.902,-18.066,-16.113,-11.719,-128.906,0
1671211776.518,-37.109,-17.090,-21.973,-20.996,-348.145,0
1671211776.535,-8.789,-15.625,-20.996,-25.391,-527.344,0
1671211776.539,11.719,-16.602,-13.184,-12.695,-347.656,0
1671211776.543,0.488,-18.555,-12.695,-8.301,-287.109,0
1671211776.547,-29.297,-15.625,-18.066,-10.254,-337.402,0
1671211776.551,-41.992,-14.648,-22.949,-6.348,-332.520,0
1671211776.555,-17.578,-20.020,-27.344,-3.418,-166.504,0
1671211776.559,-1.953,-24.414,-23.926,-0.488,-61.523,0
1671211776.562,-19.043,-20.996,-20.508,0.488,-114.258,0
1671211776.566,-43.457,-19.043,-27.344,-9.277,-229.980,0
1671211776.570,-50.781,-25.391,-22.461,-12.695,-93.750,0
1671211776.574,-26.855,-27.832,-14.160,-13.184,-27.832,0
1671211776.578,-0.488,-20.996,-16.602,-15.625,-270.508,0
1671211776.580,-2.441,-19.531,-17.090,-5.859,-226.562,0
1671211776.584,-34.668,-26.855,-19.531,-6.836,-65.918,0
1671211776.588,-53.711,-24.902,-23.438,-18.066,-138.184,0
1671211776.592,-35.645,-23.438,-21.484,-20.996,-228.027,0
1671211776.596,-8.301,-24.902,-16.602,-19.043,-114.746,0
1671211776.600,-6.836,-25.391,-16.113,-20.508,3.906,0
1671211776.604,-41.504,-28.320,-21.973,-21.973,73.730,0
1671211776.607,-57.617,-24.902,-12.207,-24.902,20.508,0
1671211776.611,-41.016,-26.855,-2.930,-26.367,37.598,0
1671211776.615,-18.066,-33.691,-12.695,-20.508,309.570,0
1671211776.619,-9.277,-25.391,-20.508,-15.625,278.809,0
1671211776.623,-38.574,-20.996,-14.160,-18.555,-51.758,0
1671211776.625,-64.453,-27.344,-12.695,-23.926,-43.457,0
1671211776.629,-48.340,-24.414,-16.113,-23.438,-33.203,0
1671211776.633,-12.695,-20.020,-24.902,-25.879,-136.230,0
1671211776.637,0.488,-19.531,-21.973,-20.996,-48.340,0
1671211776.641,-20.996,-21.973,-13.184,-6.348,207.031,0
1671211776.645,-53.711,-22.949,-19.043,-14.160,232.910,0
1671211776.649,-49.805,-19.043,-17.578,-20.508,105.957,0
1671211776.652,-19.531,-14.648,-10.742,-8.301,-22.461,0
1671211776.656,-4.395,-16.113,-10.742,-1.465,153.320,0
1671211776.660,-23.438,-14.648,-16.113,-2.930,271.484,0
1671211776.664,-44.434,-14.160,-12.695,-11.230,-3.906,0
1671211776.668,-43.945,-15.625,-9.277,-15.625,-93.750,0
1671211776.671,-22.949,-19.043,-14.648,-15.625,-26.367,0
1671211776.675,4.395,-24.414,-15.625,-15.625,14.160,0
1671211776.679,-6.348,-19.043,-16.113,-16.602,-22.461,0
1671211776.683,-34.668,-16.602,-18.555,-14.648,22.461,1
1671211776.687,-38.574,-22.461,-18.555,-18.066,16.602,0
1671211776.691,-13.672,-21.484,-13.672,-21.484,-22.461,0
1671211776.695,-2.930,-21.973,-15.137,-21.484,-13.184,0
1671211776.698,-14.160,-21.973,-24.414,-20.508,33.203,0
1671211776.702,-32.715,-24.414,-22.949,-9.277,392.578,0
1671211776.706,-41.504,-21.484,-17.578,-13.672,430.664,0
1671211776.710,-26.367,-20.020,-24.414,-26.367,49.316,0
1671211776.714,-7.812,-23.926,-24.414,-22.461,-3.906,0
1671211776.715,-10.742,-17.578,-21.484,-17.578,32.715,0
1671211776.719,-38.086,-17.090,-17.090,-22.461,-42.480,0
1671211776.723,-66.895,-21.484,-12.695,-25.391,-91.797,0
1671211776.727,-59.082,-20.996,-17.578,-20.996,3.906,0
1671211776.731,-32.715,-18.066,-20.020,-14.648,103.027,0
1671211776.735,-33.691,-16.113,-21.484,-16.113,98.633,0
1671211776.739,-63.965,-15.625,-20.996,-20.996,142.090,0
1671211776.742,-76.660,-16.602,-19.531,-16.113,328.125,0
1671211776.746,-68.848,-21.973,-20.996,-11.230,282.715,0
1671211776.750,-51.270,-16.113,-16.113,-5.859,50.293,0
1671211776.754,-44.434,-15.137,-14.160,-7.324,71.289,0
1671211776.758,-72.754,-21.973,-22.461,-21.973,135.742,0
1671211776.760,-88.867,-21.484,-28.320,-25.879,83.008,0
1671211776.764,-73.242,-18.555,-25.391,-29.297,-47.363,0
1671211776.768,-50.781,-18.066,-22.461,-36.133,13.184,0
1671211776.772,-37.598,-22.461,-20.020,-37.109,85.449,0
1671211776.776,-48.828,-18.066,-11.230,-29.785,83.984,0
1671211776.780,-76.172,-16.602,-12.207,-29.785,121.582,0
1671211776.784,-76.660,-19.043,-21.484,-36.621,181.641,0
1671211776.787,-47.852,-22.461,-21.973,-26.367,450.195,0
1671211776.791,-32.715,-19.531,-15.625,-23.926,355.957,0
1671211776.795,-58.105,-16.602,-15.625,-27.344,-26.855,0
1671211776.799,-85.449,-25.879,-18.066,-25.879,41.992,0
1671211776.803,-81.055,-21.973,-12.207,-27.344,114.258,0
1671211776.806,-49.805,-14.648,-10.254,-23.438,83.984,0
1671211776.810,-24.902,-16.113,-10.742,-12.695,92.285,0
1671211776.814,-34.668,-16.602,-10.254,-0.488,226.074,0
1671211776.818,-62.500,-20.996,-20.508,-3.906,273.438,0
1671211776.822,-60.547,-19.043,-24.902,-13.672,110.840,0
1671211776.826,-32.227,-16.113,-23.926,-19.531,111.328,0
1671211776.830,-10.742,-18.066,-25.391,-19.043,379.883,0
1671211776.833,-18.066,-14.648,-22.461,-13.672,473.145,0
1671211776.837,-51.758,-19.531,-19.531,-23.438,192.871,0
1671211776.841,-49.805,-19.043,-18.066,-21.973,147.461,0
1671211776.845,-20.508,-14.160,-25.879,-27.832,157.715,0
1671211776.849,-5.371,-19.043,-33.203,-34.668,153.809,0
1671211776.850,-9.277,-23.926,-33.203,-23.438,200.684,0
1671211776.854,-32.227,-25.391,-36.621,-21.484,197.266,0
1671211776.858,-48.828,-19.531,-35.156,-27.344,166.992,0
1671211776.862,-31.250,-16.113,-33.203,-35.156,221.191,0
1671211776.866,-7.324,-15.625,-30.762,-34.180,263.672,0
1671211776.870,-10.254,-16.113,-21.484,-23.926,334.961,0
1671211776.874,-22.461,-13.672,-20.508,-19.531,688.477,0
1671211776.877,-29.785,-14.648,-24.902,-25.879,653.320,0
1671211776.881,-21.484,-15.137,-22.461,-33.691,167.969,0
1671211776.885,4.395,-13.672,-13.672,-18.066,168.945,0
1671211776.889,-4.395,-18.555,-6.836,-7.324,348.633,0
1671211776.893,-47.852,-20.508,-13.184,-19.043,187.012,0
1671211776.895,-63.965,-22.461,-18.555,-22.949,84.473,0
1671211776.899,-46.875,-21.484,-19.531,-32.227,147.461,0
1671211776.903,-19.531,-20.020,-16.602,-26.367,124.512,0
1671211776.907,-17.578,-23.438,-17.578,-18.555,57.129,0
1671211776.911,-43.457,-20.996,-20.996,-21.484,42.480,0
1671211776.915,-59.082,-10.254,-13.672,-11.719,205.566,0
1671211776.919,-48.340,-6.348,-13.672,-16.602,246.094,0
1671211776.922,-24.902,-10.742,-18.555,-23.926,222.168,0
1671211776.926,-15.625,-16.113,-25.391,-23.926,150.391,0
1671211776.930,-24.414,-22.949,-33.203,-10.742,265.137,0
1671211776.934,-45.410,-17.578,-29.785,-3.906,387.695,0
1671211776.938,-56.641,-15.137,-27.344,-28.809,81.543,0
1671211776.955,-37.109,-19.531,-24.902,-46.875,-28.320,0
1671211776.959,-18.555,-18.555,-20.996,-40.039,62.500,0
1671211776.963,-36.621,-16.602,-23.438,-33.691,108.398,0
1671211776.967,-61.523,-16.602,-31.738,-36.621,12.695,0
1671211776.971,-60.059,-24.414,-34.668,-34.668,38.086,0
1671211776.975,-33.203,-26.367,-23.438,-22.949,170.410,0
1671211776.979,-12.695,-20.508,-15.625,-21.973,126.953,0
1671211776.982,-32.227,-21.484,-17.090,-23.438,147.949,0
1671211776.986,-59.082,-24.414,-22.461,-23.926,120.117,0
1671211776.990,-57.129,-26.367,-34.180,-25.391,348.145,0
1671211776.994,-31.250,-20.020,-33.691,-25.879,324.707,0
1671211776.998,-13.672,-20.996,-25.391,-26.855,-44.434,0
1671211777.000,-24.902,-22.461,-23.438,-22.949,-3.906,0
1671211777.004,-45.410,-20.996,-26.367,-18.066,30.273,0
1671211777.008,-43.457,-19.043,-26.367,-14.160,-83.984,0
1671211777.012,-16.602,-20.508,-24.902,-8.789,-138.184,0
1671211777.016,-3.906,-17.578,-19.531,-9.277,-48.340,0
1671211777.020,-23.926,-9.277,-15.625,-25.879,25.391,0
1671211777.024,-46.387,-9.277,-7.324,-26.367,60.059,0
1671211777.027,-45.898,-2.930,-7.324,-23.438,-13.672,0
1671211777.031,-24.902,-5.371,-17.578,-28.320,69.824,0
1671211777.035,-3.906,-17.578,-24.902,-34.668,141.113,0
1671211777.039,-9.766,-21.484,-24.414,-39.062,-96.680,0
1671211777.043,-36.133,-23.926,-23.926,-29.297,-120.117,0
1671211777.046,-46.875,-20.996,-24.902,-28.320,-77.637,0
1671211777.050,-26.855,-21.484,-22.461,-35.645,-91.797,0
1671211777.054,-1.465,-22.949,-31.738,-42.969,-118.164,0
1671211777.058,10.742,-14.160,-35.645,-39.062,-20.508,0
1671211777.062,-14.160,-15.625,-24.902,-25.879,28.809,0
1671211777.066,-43.945,-21.484,-24.902,-24.902,0.000,0
1671211777.070,-34.180,-18.555,-33.691,-27.344,2.441,0
1671211777.073,-8.301,-18.066,-32.715,-22.949,47.363,0
1671211777.077,-4.395,-22.461,-22.949,-1.953,343.262,0
1671211777.081,-23.438,-17.578,-19.531,-0.488,208.496,0
1671211777.085,-47.363,-14.648,-28.809,-17.578,-170.410,0
1671211777.089,-38.086,-18.066,-32.227,-29.297,-143.555,0
1671211777.090,-12.695,-16.602,-34.668,-32.227,-102.051,0
1671211777.094,-7.324,-15.625,-33.691,-23.926,-195.312,0
1671211777.098,-17.090,-14.160,-28.809,-21.973,-199.219,0
1671211777.102,-38.574,-12.207,-25.391,-25.391,-48.828,0
1671211777.106,-35.645,-12.207,-27.832,-33.203,-109.863,0
1671211777.110,-6.836,-13.672,-32.227,-33.203,-234.863,0
1671211777.114,0.977,-15.137,-30.273,-30.273,-176.758,0
1671211777.117,-15.137,-16.113,-23.438,-17.578,21.484,0
1671211777.121,-36.621,-9.277,-18.066,-13.672,101.562,0
1671211777.125,-40.039,-8.301,-19.531,-28.320,-184.570,0
1671211777.129,-19.043,-11.230,-25.879,-30.762,-272.949,0
1671211777.133,1.953,-5.371,-26.367,-20.508,-167.480,0
1671211777.136,-10.742,-8.789,-22.949,-18.555,-149.414,0
1671211777.140,-56.152,-13.672,-20.508,-26.367,-187.012,0
1671211777.144,-67.383,-16.113,-20.020,-37.598,-192.871,0
1671211777.148,-44.434,-20.508,-18.066,-39.062,-188.965,0
1671211777.152,-25.879,-22.949,-20.020,-31.250,-192.383,0
1671211777.156,-23.926,-16.113,-21.973,-24.414,-113.770,0
1671211777.160,-49.316,-13.184,-23.438,-23.438,2.930,0
1671211777.163,-57.617,-16.602,-27.344,-14.648,199.219,0
1671211777.167,-31.738,-13.672,-22.949,-14.648,90.332,0
1671211777.171,-20.020,-15.137,-22.949,-31.250,-261.230,0
1671211777.175,-21.973,-16.602,-25.879,-19.043,-221.680,0
1671211777.179,-38.574,-14.160,-27.344,-14.648,-67.383,0
1671211777.181,-63.965,-9.766,-31.738,-31.738,-250.000,0
1671211777.185,-42.480,-9.766,-33.691,-31.738,-333.984,0
1671211777.189,-7.812,-17.090,-25.391,-27.832,-221.680,0
1671211777.193,-16.113,-19.043,-23.926,-29.297,-184.570,0
1671211777.197,-47.852,-21.484,-26.367,-25.879,-220.703,0
1671211777.201,-59.570,-23.438,-16.602,-30.762,-219.238,0
1671211777.205,-36.133,-19.043,-14.160,-31.738,5.371,0
1671211777.208,-14.160,-16.113,-16.113,-16.113,33.203,0
1671211777.212,-10.742,-12.207,-20.508,-13.672,-234.375,0
1671211777.216,-33.691,-14.648,-23.926,-21.484,-138.184,0
1671211777.220,-55.664,-18.066,-20.020,-26.855,-25.879,0
1671211777.224,-39.062,-16.602,-17.578,-33.203,-113.281,0
1671211777.226,-6.836,-13.672,-23.438,-37.598,-193.359,0
1671211777.230,-4.883,-13.672,-29.785,-32.715,-184.082,0
1671211777.234,-32.715,-19.043,-26.367,-20.508,-101.562,0
1671211777.238,-46.387,-22.461,-20.996,-18.066,-86.914,0
1671211777.242,-30.273,-20.996,-17.578,-25.879,-143.066,0
1671211777.246,-11.230,-22.461,-16.113,-32.715,-80.078,0
1671211777.250,-12.207,-21.484,-19.531,-23.438,104.492,0
1671211777.253,-24.414,-16.113,-15.625,-16.113,49.316,0
1671211777.257,-45.898,-14.648,-4.395,-23.926,-110.352,0
1671211777.261,-49.805,-15.137,-1.465,-33.691,-118.652,0
1671211777.265,-28.809,-15.625,-9.277,-36.621,-20.020,0
1671211777.269,-18.066,-17.090,-15.625,-34.180,-89.844,0
1671211777.272,-33.203,-20.508,-18.066,-35.645,-126.465,0
1671211777.276,-54.688,-20.020,-22.949,-29.297,-2.930,0
1671211777.280,-58.594,-14.160,-23.438,-28.809,-64.941,0
1671211777.284,-41.504,-13.672,-26.855,-39.551,-224.121,0
1671211777.288,-20.508,-12.695,-23.438,-32.715,-211.426,0
1671211777.292,-31.250,-12.207,-19.531,-26.855,-24.414,0
1671211777.296,-62.988,-14.648,-17.578,-32.227,48.828,0
1671211777.299,-72.266,-10.254,-18.066,-32.715,-183.594,0
1671211777.303,-54.688,-15.625,-14.648,-33.691,-293.457,0
1671211777.307,-32.715,-23.926,-15.137,-24.414,-65.918,0
1671211777.311,-40.527,-24.902,-29.297,-20.020,51.270,0
1671211777.315,-69.336,-28.809,-36.133,-28.809,-126.953,0
1671211777.330,-79.102,-23.926,-30.762,-41.016,-163.086,0
1671211777.334,-57.617,-19.531,-25.391,-42.969,-147.461,0
1671211777.338,-34.668,-19.043,-27.344,-31.250,-131.836,0
1671211777.342,-35.156,-15.625,-20.020,-21.973,-147.949,0
1671211777.346,-56.641,-12.695,-24.414,-22.949,-96.680,0
1671211777.350,-68.359,-18.066,-33.203,-24.902,179.688,0
1671211777.354,-43.945,-14.648,-23.438,-29.785,115.234,0
1671211777.357,-13.672,-11.230,-16.113,-34.180,-26.367,0
1671211777.361,-12.695,-12.207,-19.043,-30.273,103.027,0
1671211777.365,-28.320,-5.859,-19.043,-16.113,305.664,0
1671211777.369,-53.223,-6.836,-22.949,-11.719,117.188,0
1671211777.373,-55.176,-15.625,-31.250,-22.949,-137.695,0
1671211777.375,-24.902,-12.207,-19.531,-20.996,-69.336,0
1671211777.379,-16.113,-9.766,-16.602,-14.648,-9.766,0
1671211777.383,-40.039,-19.043,-19.043,-21.484,-9.277,0
1671211777.387,-53.223,-23.438,-15.137,-26.855,-70.312,0
1671211777.391,-40.527,-20.996,-20.996,-28.320,-23.926,0
1671211777.395,-15.137,-22.949,-31.250,-29.785,78.125,0
1671211777.399,-3.418,-21.484,-29.785,-20.996,105.469,0
1671211777.402,-17.578,-19.531,-23.438,-15.625,110.840,0
1671211777.406,-35.156,-19.043,-24.414,-4.395,264.648,0
1671211777.410,-31.250,-16.113,-29.785,0.488,357.422,0
1671211777.414,-4.883,-13.672,-32.715,-17.578,87.402,0
1671211777.418,10.742,-15.625,-35.645,-22.949,-49.805,0
1671211777.420,-3.418,-13.184,-31.250,-19.043,65.918,0
1671211777.424,-30.762,-14.648,-20.508,-23.438,99.121,0
1671211777.428,-26.855,-17.578,-19.531,-27.832,7.324,0
1671211777.432,3.418,-17.090,-34.668,-22.461,27.832,0
1671211777.436,12.207,-17.578,-40.527,-17.090,92.773,0
1671211777.440,-2.930,-16.602,-19.531,-19.531,150.391,0
1671211777.444,-27.832,-16.602,-3.418,-22.461,134.766,0
1671211777.447,-31.250,-17.090,-20.996,-30.273,99.609,0
1671211777.451,-8.789,-18.066,-37.109,-20.996,367.188,0
1671211777.455,6.348,-17.090,-32.227,-14.648,466.309,0
1671211777.459,-10.254,-16.113,-23.926,-22.461,159.180,0
1671211777.463,-34.180,-18.555,-19.531,-17.578,90.820,0
1671211777.465,-41.016,-19.043,-23.438,-25.879,87.402,0
1671211777.469,-27.832,-21.973,-32.227,-31.738,-77.148,0
1671211777.473,-6.348,-19.531,-26.367,-21.973,-84.961,0
1671211777.477,-4.883,-18.555,-18.066,-21.484,61.523,0
1671211777.481,-27.832,-18.555,-26.855,-18.555,84.473,0
1671211777.485,-38.574,-19.531,-24.414,-11.719,56.641,0
1671211777.489,-20.508,-23.438,-19.043,-14.160,51.758,0
1671211777.492,-0.977,-20.020,-19.531,-11.719,236.328,0
1671211777.496,-7.324,-20.508,-20.996,-1.465,300.293,0
1671211777.500,-38.574,-22.949,-21.973,-10.254,-2.441,0
1671211777.504,-52.734,-20.996,-15.137,-24.414,-7.324,0
1671211777.508,-35.156,-19.531,-20.996,-30.762,122.070,0
1671211777.511,-8.301,-20.996,-31.250,-26.855,191.406,0
1671211777.515,-8.301,-17.578,-23.438,-21.484,101.074,0
1671211777.519,-27.344,-18.066,-15.625,-17.578,74.219,0
1671211777.523,-43.457,-21.973,-19.531,-16.113,100.098,0
1671211777.527,-43.945,-17.578,-21.484,-25.879,19.043,0
1671211777.531,-16.602,-17.578,-25.391,-28.320,61.523,0
1671211777.535,-1.953,-18.555,-26.855,-20.996,133.789,0
1671211777.538,-30.273,-21.484,-20.996,-16.113,391.602,0
1671211777.542,-63.477,-23.438,-24.414,-26.855,406.250,0
1671211777.546,-49.316,-22.949,-22.461,-39.551,32.227,0
1671211777.550,-13.184,-24.902,-16.113,-40.039,24.414,0
1671211777.554,-9.766,-23.926,-23.438,-41.016,94.238,0
1671211777.555,-35.156,-24.414,-31.738,-31.738,33.691,0
1671211777.559,-56.641,-28.320,-32.227,-27.832,24.902,0
1671211777.563,-51.270,-32.715,-28.809,-34.180,106.934,0
1671211777.567,-22.461,-26.855,-32.227,-23.926,109.375,0
1671211777.571,-7.324,-17.578,-28.320,-14.160,28.320,0
1671211777.575,-29.785,-20.996,-28.320,-19.043,55.664,0
1671211777.579,-50.781,-27.832,-38.086,-17.578,317.383,0
1671211777.582,-53.711,-26.367,-24.902,-20.020,442.871,0
1671211777.586,-34.668,-25.391,-11.719,-29.297,58.105,0
1671211777.590,-20.508,-30.273,-30.273,-27.832,-115.234,0
1671211777.594,-36.621,-31.250,-37.109,-28.320,10.254,0
1671211777.598,-51.758,-30.273,-17.090,-27.832,34.668,0
1671211777.600,-63.477,-36.133,-24.414,-36.133,-52.246,0
1671211777.604,-47.852,-37.598,-27.832,-39.062,-55.664,0
1671211777.608,-23.438,-36.133,-14.648,-25.391,13.672,0
1671211777.612,-32.227,-32.227,-19.043,-24.414,4.883,0
1671211777.616,-52.734,-25.391,-20.508,-27.832,-27.832,0
1671211777.620,-53.711,-31.250,-22.949,-24.414,111.328,0
1671211777.624,-37.109,-35.156,-21.973,-23.438,264.648,1
1671211777.627,-12.695,-29.785,-20.996,-22.949,135.254,0
1671211777.631,-8.789,-26.367,-22.949,-18.555,22.949,0
1671211777.635,-39.551,-28.809,-34.180,-15.137,69.824,0
1671211777.639,-54.199,-35.156,-38.086,-1.953,261.230,0
1671211777.643,-32.715,-29.297,-29.785,-7.324,176.758,0
1671211777.646,-13.672,-18.555,-30.273,-17.090,-76.172,0
1671211777.650,-14.160,-16.113,-37.598,-4.395,-11.230,0
1671211777.654,-36.133,-15.625,-35.645,-6.836,4.883,0
1671211777.658,-51.758,-12.207,-23.926,-20.020,-91.309,0
1671211777.662,-34.180,-13.672,-16.602,-21.484,-110.352,0
1671211777.666,-10.742,-21.484,-22.461,-16.113,41.504,0
1671211777.670,-17.578,-22.461,-34.180,-23.926,72.266,0
