timestamps,TP9,AF7,AF8,TP10,Right AUX
1671211471.300,-62.500,-21.484,-21.484,-37.109,-166.992
1671211471.304,1.465,-11.719,-14.648,-20.020,-102.051
1671211471.308,3.906,-13.184,-16.113,-6.836,63.477
1671211471.312,-51.270,-13.672,-23.926,-17.578,37.109
1671211471.316,-85.449,-13.672,-25.391,-30.273,-90.820
1671211471.320,-53.711,-16.113,-25.879,-30.762,-101.562
1671211471.324,0.488,-16.113,-28.809,-15.625,266.602
1671211471.327,11.719,-10.254,-15.137,-10.742,157.715
1671211471.331,-29.785,-10.742,-17.578,-21.484,-184.570
1671211471.335,-72.266,-16.602,-30.273,-25.391,-116.699
1671211471.339,-56.641,-13.184,-27.832,-35.645,-83.008
1671211471.343,2.930,-13.672,-24.902,-39.062,-129.395
1671211471.348,23.438,-16.602,-23.438,-21.973,-94.238,0
1671211471.352,-18.555,-17.578,-24.414,-11.230,108.398,0
1671211471.356,-68.359,-19.531,-26.367,-20.508,133.301,0
1671211471.360,-66.895,-15.625,-28.320,-32.715,-47.363,0
1671211471.364,-11.230,-13.672,-24.414,-29.297,-63.965,0
1671211471.368,17.090,-14.648,-24.902,-14.160,47.852,0
1671211471.372,-19.531,-20.996,-24.414,-12.207,55.664,0
1671211471.375,-67.383,-20.508,-17.090,-24.414,-37.109,0
1671211471.379,-69.824,-17.090,-20.996,-28.809,-122.559,0
1671211471.383,-16.602,-19.043,-28.320,-26.367,45.898,0
1671211471.387,17.578,-17.578,-29.297,-25.879,-16.602,0
1671211471.391,-12.695,-14.648,-28.320,-27.344,-192.383,0
1671211471.406,-61.523,-15.625,-26.367,-24.902,-74.219,0
1671211471.410,-68.848,-17.090,-22.461,-29.785,42.969,0
1671211471.414,-28.320,-16.113,-18.066,-36.621,34.668,0
1671211471.418,12.695,-14.648,-22.461,-27.344,-20.996,0
1671211471.422,-7.812,-16.602,-31.738,-25.391,0.488,0
1671211471.426,-61.035,-22.461,-30.762,-25.391,330.078,0
1671211471.430,-78.613,-22.949,-29.297,-35.156,276.855,0
1671211471.433,-44.922,-22.461,-29.297,-50.781,-85.449,0
1671211471.437,12.695,-19.043,-25.879,-27.832,-57.617,0
1671211471.441,3.906,-16.602,-29.297,-15.625,-15.625,0
1671211471.445,-67.383,-20.020,-30.762,-35.156,-73.730,0
1671211471.449,-92.285,-19.043,-27.832,-45.898,-103.027,0
1671211471.450,-42.480,-12.207,-29.785,-40.527,-59.082,0
1671211471.454,13.184,-10.254,-22.949,-31.250,-39.551,0
1671211471.458,6.348,-18.066,-21.973,-20.020,-98.633,0
1671211471.462,-50.293,-17.090,-24.902,-20.996,-57.129,0
1671211471.466,-81.055,-21.484,-20.996,-34.180,22.461,0
1671211471.470,-41.016,-25.391,-23.926,-39.062,40.527,0
1671211471.474,13.184,-20.508,-21.973,-28.320,70.801,0
1671211471.477,9.277,-23.438,-24.902,-17.090,119.629,0
1671211471.481,-42.480,-29.785,-26.367,-9.766,296.875,0
1671211471.485,-74.707,-29.785,-24.902,-18.066,253.418,0
1671211471.489,-54.199,-27.832,-25.879,-41.992,-52.246,0
1671211471.493,-8.789,-24.902,-21.484,-38.086,-121.582,0
1671211471.495,6.348,-20.996,-24.902,-22.461,-56.152,0
1671211471.499,-35.645,-19.531,-28.809,-22.461,-69.336,0
1671211471.503,-79.590,-22.949,-27.344,-30.762,-59.082,0
1671211471.507,-60.059,-22.949,-27.832,-38.086,-48.828,0
1671211471.511,-1.465,-20.996,-26.367,-34.180,74.219,0
1671211471.515,14.648,-16.113,-20.508,-22.949,64.941,0
1671211471.519,-25.879,-15.625,-18.066,-22.461,20.020,0
1671211471.522,-70.801,-22.949,-29.785,-33.203,27.832,0
1671211471.526,-64.941,-23.438,-36.621,-36.621,167.480,0
1671211471.530,-11.230,-18.555,-26.855,-38.086,104.004,0
1671211471.534,21.973,-15.625,-15.137,-14.160,-44.434,0
1671211471.538,-10.254,-14.160,-17.090,-1.465,33.203,0
1671211471.540,-59.082,-18.066,-22.949,-20.020,33.691,0
1671211471.544,-56.641,-18.066,-16.113,-35.156,-112.793,0
1671211471.548,-4.883,-16.602,-9.277,-34.668,-130.859,0
1671211471.552,21.973,-17.578,-13.672,-17.090,-92.285,0
1671211471.556,-11.719,-18.066,-22.461,-7.812,-110.352,0
1671211471.560,-67.871,-20.996,-31.250,-18.555,-1.953,0
1671211471.564,-76.660,-14.160,-27.832,-26.855,41.016,0
1671211471.567,-21.973,-13.672,-21.484,-21.973,123.535,0
1671211471.571,14.648,-17.090,-22.949,-22.461,132.812,0
1671211471.575,-16.113,-15.625,-26.367,-26.855,-56.641,0
1671211471.579,-63.965,-16.602,-22.461,-24.902,-120.117,0
1671211471.583,-76.660,-18.066,-16.602,-39.062,-115.723,0
1671211471.586,-34.180,-16.602,-13.184,-46.875,-31.738,0
1671211471.590,12.207,-15.625,-17.090,-30.273,0.977,0
1671211471.594,-3.418,-14.648,-20.020,-18.066,70.312,0
1671211471.598,-56.641,-22.949,-18.555,-16.113,244.629,0
1671211471.602,-82.031,-24.414,-15.625,-28.809,84.473,0
1671211471.606,-41.992,-17.090,-10.254,-39.551,-125.000,0
1671211471.610,10.742,-18.555,-13.672,-30.762,52.734,0
1671211471.613,-0.488,-19.531,-23.438,-12.695,285.645,0
1671211471.617,-56.152,-16.113,-23.438,-23.926,28.809,0
1671211471.621,-81.543,-14.160,-20.508,-38.086,-145.996,0
1671211471.625,-46.387,-14.648,-23.438,-35.645,-109.375,0
1671211471.629,0.488,-16.602,-20.020,-34.668,-145.020,0
1671211471.631,5.859,-15.137,-14.648,-26.855,-108.887,0
1671211471.635,-44.922,-15.625,-25.391,-34.180,-34.180,0
1671211471.639,-85.449,-24.414,-35.156,-49.805,-54.688,0
1671211471.643,-62.012,-23.438,-35.156,-48.340,-97.656,0
1671211471.647,-8.301,-17.578,-24.902,-33.691,-122.070,0
1671211471.651,0.488,-22.949,-16.113,-20.508,22.461,0
1671211471.655,-48.340,-27.832,-14.160,-11.230,308.105,0
1671211471.658,-88.379,-18.066,-9.277,-14.160,326.172,0
1671211471.662,-80.078,-13.672,-13.184,-43.457,-40.039,0
1671211471.666,-29.785,-18.066,-17.578,-49.316,-110.352,0
1671211471.670,-6.348,-14.648,-17.090,-32.715,-0.488,0
1671211471.674,-48.340,-10.254,-20.996,-37.109,-32.227,0
1671211471.675,-83.008,-14.160,-20.020,-44.434,-124.023,0
1671211471.679,-69.336,-19.043,-27.344,-45.898,-118.652,0
1671211471.683,-14.160,-13.672,-29.297,-39.062,-1.465,0
1671211471.687,19.043,-9.766,-27.832,-29.297,10.254,0
1671211471.691,-15.625,-6.836,-23.438,-20.996,-19.531,0
1671211471.695,-59.570,-8.301,-20.020,-18.555,54.199,0
1671211471.699,-56.152,-16.113,-22.461,-20.020,326.172,0
1671211471.702,-8.301,-9.766,-18.066,-21.973,125.977,0
1671211471.706,19.043,-1.465,-25.391,-16.602,-150.879,0
1671211471.710,-17.090,-10.742,-34.180,-13.184,39.062,0
1671211471.714,-70.312,-15.137,-31.250,-16.113,159.668,0
1671211471.718,-74.707,-8.789,-16.602,-24.414,-27.832,0
1671211471.722,-20.508,-11.719,-8.301,-30.762,-133.789,0
1671211471.726,13.184,-14.648,-13.184,-24.414,-112.793,0
1671211471.730,-16.113,-14.160,-12.695,-17.090,-94.727,0
1671211471.734,-63.965,-14.648,-12.207,-20.508,-103.516,0
1671211471.738,-68.848,-16.113,-12.695,-31.738,-73.242,0
1671211471.742,-24.414,-21.973,-17.578,-40.527,68.848,0
1671211471.746,17.578,-21.484,-16.602,-35.156,95.703,0
1671211471.749,-1.953,-21.484,-17.090,-24.902,-33.691,0
1671211471.753,-59.570,-27.832,-22.949,-28.809,-45.898,0
1671211471.757,-76.172,-20.508,-17.578,-26.855,268.555,0
1671211471.761,-38.086,-12.207,-14.648,-25.879,165.527,0
1671211471.765,0.000,-15.137,-20.996,-28.809,-87.891,0
1671211471.780,-9.277,-18.066,-19.531,-18.555,12.207,0
1671211471.784,-61.523,-16.113,-10.742,-22.461,81.543,0
1671211471.788,-84.473,-12.207,-10.254,-41.016,65.918,0
1671211471.792,-43.945,-9.766,-12.207,-39.062,-112.793,0
1671211471.796,-1.465,-13.184,-18.555,-35.156,-92.773,0
1671211471.800,-5.859,-17.090,-20.508,-26.367,291.016,0
1671211471.804,-58.105,-16.113,-17.578,-27.344,196.777,0
1671211471.807,-93.750,-21.973,-22.949,-44.922,-99.609,0
1671211471.811,-54.688,-24.902,-26.855,-44.434,-96.680,0
1671211471.815,3.418,-14.648,-23.438,-33.203,-73.242,0
1671211471.819,10.254,-11.719,-17.578,-23.438,-105.957,0
1671211471.823,-36.133,-15.625,-16.113,-17.090,-116.211,0
1671211471.825,-70.312,-17.090,-22.461,-23.438,61.523,0
1671211471.829,-48.340,-13.184,-23.438,-25.879,183.594,0
1671211471.833,0.977,-8.301,-21.484,-26.855,-45.898,0
1671211471.837,15.625,-10.254,-21.484,-18.555,-69.824,0
1671211471.841,-19.531,-7.324,-17.578,-15.137,35.645,0
1671211471.845,-62.500,-5.371,-21.973,-22.949,77.148,0
1671211471.849,-50.781,-18.555,-30.762,-34.668,-7.324,0
1671211471.852,5.859,-17.090,-25.879,-32.715,-136.230,0
1671211471.856,30.273,-9.277,-24.902,-8.789,118.652,0
1671211471.860,-17.090,-15.625,-22.461,-14.648,186.523,0
1671211471.864,-69.336,-21.973,-22.949,-36.133,-74.219,0
1671211471.868,-55.176,-17.578,-20.508,-37.109,-100.586,0
1671211471.870,-1.953,-10.254,-18.066,-35.645,-67.383,0
1671211471.874,21.484,-13.184,-29.297,-29.297,-72.266,0
1671211471.878,-10.742,-17.578,-37.109,-24.414,-32.715,0
1671211471.882,-62.988,-18.555,-42.969,-35.156,-19.531,0
1671211471.886,-63.965,-20.020,-34.668,-40.527,149.414,0
1671211471.890,-9.277,-21.484,-27.832,-32.227,76.660,0
1671211471.894,17.578,-17.578,-24.414,-19.531,-10.742,0
1671211471.897,-15.137,-16.113,-16.113,-12.207,72.754,0
1671211471.901,-58.594,-21.484,-25.391,-10.254,201.660,0
1671211471.905,-67.383,-22.949,-32.715,-35.645,61.035,0
1671211471.909,-21.484,-20.508,-32.227,-46.875,-47.852,0
1671211471.913,17.578,-20.508,-31.250,-33.691,-1.465,0
1671211471.916,-6.836,-23.438,-26.855,-25.879,-35.156,0
1671211471.920,-46.387,-17.578,-18.555,-21.973,-135.742,0
1671211471.924,-62.500,-14.648,-25.879,-31.250,-157.227,0
1671211471.928,-30.273,-20.020,-31.250,-39.551,-97.656,0
1671211471.932,13.672,-22.949,-30.762,-27.832,-41.992,0
1671211471.936,-4.883,-25.879,-37.109,-22.461,55.664,0
1671211471.940,-58.105,-26.855,-29.297,-29.297,33.203,0
1671211471.943,-72.754,-20.508,-24.414,-20.996,228.027,0
1671211471.947,-31.250,-21.484,-27.832,-20.508,284.180,0
1671211471.951,11.719,-21.973,-31.738,-33.691,-86.426,0
1671211471.955,6.348,-14.160,-23.438,-26.855,-112.305,0
1671211471.959,-47.852,-17.578,-22.949,-27.832,5.859,0
1671211471.960,-86.914,-25.391,-35.156,-45.898,-51.758,0
1671211471.964,-49.316,-24.414,-29.785,-48.828,-106.445,0
1671211471.968,9.277,-23.926,-24.902,-34.180,66.895,0
1671211471.972,4.883,-21.484,-24.902,-26.367,185.059,0
1671211471.976,-44.922,-15.625,-18.555,-24.414,-20.996,0
1671211471.980,-79.590,-15.625,-20.508,-30.762,-103.516,0
1671211471.984,-53.711,-18.555,-19.043,-32.227,-21.484,0
1671211471.987,10.254,-20.508,-15.137,-14.648,173.828,0
1671211471.991,15.625,-15.625,-13.672,-9.766,59.570,0
1671211471.995,-34.180,-11.230,-14.648,-18.066,-107.422,0
1671211471.999,-69.824,-14.648,-16.113,-24.902,-40.039,0
1671211472.003,-53.223,-11.719,-15.625,-29.785,-58.594,0
1671211472.006,-0.488,-13.672,-18.555,-30.273,-161.621,0
1671211472.010,13.184,-17.090,-25.391,-24.414,-135.742,0
1671211472.014,-25.879,-15.137,-21.484,-16.113,-94.238,0
1671211472.018,-64.453,-20.508,-20.020,-18.066,-110.840,0
1671211472.022,-52.734,-23.438,-27.832,-31.250,-168.457,0
1671211472.026,2.930,-20.996,-24.902,-26.367,-90.332,0
1671211472.030,31.738,-18.066,-18.066,-3.418,241.699,0
1671211472.033,-14.648,-15.137,-10.742,-3.418,281.738,0
1671211472.037,-71.289,-16.602,-7.812,-22.461,-31.738,0
1671211472.041,-62.988,-12.207,-16.113,-29.297,-80.078,0
1671211472.045,-16.113,-16.113,-29.785,-35.156,-12.207,0
1671211472.049,10.742,-20.996,-24.414,-24.902,-1.465,0
1671211472.051,-17.090,-16.113,-14.160,-17.090,24.902,0
1671211472.055,-70.801,-17.090,-21.484,-31.738,37.598,0
1671211472.059,-70.312,-20.020,-22.949,-33.203,280.762,0
1671211472.063,-19.043,-16.602,-21.484,-38.574,81.055,0
1671211472.067,7.812,-13.184,-23.438,-38.086,-132.812,0
1671211472.071,-17.578,-14.648,-17.578,-23.438,77.637,0
1671211472.075,-62.500,-19.043,-16.113,-19.043,356.445,0
1671211472.078,-75.684,-16.602,-18.066,-36.133,118.164,0
1671211472.082,-35.645,-17.578,-15.625,-47.363,-148.438,0
1671211472.086,5.859,-23.926,-20.508,-39.062,-10.254,0
1671211472.090,-17.090,-20.508,-31.250,-29.297,24.414,0
1671211472.094,-69.336,-16.602,-30.273,-38.574,-49.805,0
1671211472.097,-82.031,-18.066,-24.902,-50.781,-110.352,0
1671211472.101,-34.668,-15.625,-16.602,-38.574,-104.980,0
1671211472.105,-3.418,-18.066,-14.160,-31.250,-45.898,0
1671211472.109,-22.461,-21.484,-19.531,-22.461,24.414,0
1671211472.113,-67.383,-21.973,-27.344,-20.508,-8.789,0
1671211472.117,-90.820,-21.484,-23.438,-28.809,140.625,0
1671211472.121,-57.129,-13.672,-12.207,-29.297,167.969,0
1671211472.124,-10.254,-12.695,-17.578,-32.227,-104.492,0
1671211472.128,-14.160,-18.066,-22.461,-33.691,-95.703,0
1671211472.132,-59.082,-16.602,-16.602,-28.809,56.152,0
1671211472.136,-92.773,-19.043,-17.578,-33.203,-35.156,0
1671211472.140,-60.059,-21.973,-20.020,-43.457,-98.145,0
1671211472.156,-0.977,-15.137,-14.160,-36.621,-45.898,0
1671211472.160,-1.465,-19.043,-16.602,-18.555,52.246,0
1671211472.164,-50.293,-27.344,-22.949,-19.531,87.402,0
1671211472.168,-82.520,-17.578,-17.578,-29.785,-77.637,0
1671211472.172,-54.199,-8.301,-13.184,-23.438,-65.918,0
1671211472.176,4.883,-9.766,-20.020,-9.766,322.266,0
1671211472.180,13.672,-6.348,-19.531,-15.137,251.465,0
1671211472.183,-30.273,-2.441,-22.461,-24.902,-59.082,0
1671211472.187,-65.918,-10.742,-25.879,-30.273,-49.316,0
1671211472.191,-42.480,-15.137,-20.996,-26.367,145.996,0
1671211472.195,8.789,-6.836,-14.160,-32.715,-20.020,0
1671211472.199,20.508,-10.742,-13.672,-23.926,-161.621,0
1671211472.200,-20.996,-16.113,-15.137,-10.254,-46.875,0
1671211472.204,-68.359,-9.277,-20.508,-25.879,-57.129,0
1671211472.208,-62.988,-12.695,-34.180,-51.758,-137.695,0
1671211472.212,-6.348,-15.137,-31.738,-48.340,-109.375,0
1671211472.216,23.926,-12.207,-20.996,-25.879,17.578,0
1671211472.220,-15.625,-14.160,-26.855,-27.832,47.363,0
1671211472.224,-73.242,-18.066,-27.344,-40.039,3.906,0
1671211472.227,-70.312,-18.066,-16.602,-39.551,-83.984,0
1671211472.231,-9.766,-15.137,-18.066,-27.344,127.441,0
1671211472.235,17.578,-17.090,-20.508,-13.184,336.914,0
1671211472.239,-16.602,-14.648,-24.902,-20.020,30.762,0
1671211472.243,-65.430,-17.090,-28.320,-38.574,-62.988,0
1671211472.245,-73.242,-14.648,-24.902,-41.504,-46.875,0
1671211472.249,-20.996,-12.695,-22.461,-32.227,-118.652,0
1671211472.253,18.066,-13.184,-23.438,-21.973,-58.105,0
1671211472.257,-4.883,-13.184,-13.184,-15.625,25.879,0
1671211472.261,-49.316,-16.113,-15.137,-9.766,112.305,0
1671211472.265,-68.848,-21.484,-24.414,-29.785,10.742,0
1671211472.269,-36.133,-22.461,-19.043,-42.480,-82.520,0
1671211472.272,13.672,-16.113,-11.230,-26.855,0.977,0
1671211472.276,3.418,-18.066,-12.695,-9.277,195.801,0
1671211472.280,-51.758,-19.531,-12.695,-16.602,38.574,0
1671211472.284,-65.918,-12.207,-6.348,-27.344,-153.320,0
1671211472.288,-25.879,-8.789,-6.348,-24.902,-14.648,0
1671211472.291,9.766,-14.160,-17.578,-20.996,2.441,0
1671211472.295,-1.465,-17.578,-22.949,-19.043,-82.520,0
1671211472.299,-41.016,-12.207,-17.578,-10.742,-67.383,0
1671211472.303,-71.777,-9.766,-20.996,-16.113,2.441,0
1671211472.307,-47.363,-12.207,-28.320,-34.180,-36.621,0
1671211472.311,12.207,-7.324,-22.461,-23.926,-70.801,0
1671211472.315,5.371,-14.648,-20.996,-19.043,-0.977,0
1671211472.318,-45.898,-23.438,-16.113,-20.996,175.293,0
1671211472.322,-72.266,-16.113,-15.625,-19.043,150.391,0
1671211472.326,-50.293,-17.578,-19.043,-29.785,-67.871,0
1671211472.330,-2.441,-23.438,-20.996,-22.461,-19.043,0
1671211472.334,4.395,-17.090,-25.879,-9.277,-35.645,0
1671211472.335,-36.621,-12.207,-26.367,-11.230,-90.332,0
1671211472.339,-72.754,-15.625,-21.484,-19.531,-99.609,0
1671211472.343,-58.105,-22.949,-23.926,-29.785,17.090,0
1671211472.347,-4.395,-24.414,-26.855,-26.367,237.305,0
1671211472.351,14.160,-20.020,-19.043,-16.113,56.641,0
1671211472.355,-30.762,-21.484,-13.184,-17.090,-22.949,0
1671211472.359,-75.684,-23.438,-18.066,-26.367,71.777,0
1671211472.362,-61.035,-20.996,-21.973,-19.531,163.574,0
1671211472.366,-10.254,-17.578,-18.555,-31.250,23.926,0
1671211472.370,13.672,-14.648,-16.113,-34.180,-81.543,0
1671211472.374,-21.973,-16.602,-23.438,-20.020,-38.086,0
1671211472.378,-67.383,-17.578,-28.320,-25.391,-61.523,0
1671211472.381,-64.941,-14.648,-20.020,-34.180,-138.184,0
1671211472.385,-16.602,-18.555,-19.531,-28.809,-131.348,0
1671211472.389,13.184,-21.973,-28.809,-18.555,10.254,0
1671211472.393,-22.949,-22.461,-21.484,-15.137,-10.742,0
1671211472.397,-74.219,-23.926,-20.996,-24.902,-66.406,0
1671211472.401,-73.730,-22.461,-24.902,-34.668,-76.172,0
1671211472.405,-21.973,-20.020,-25.391,-31.250,134.766,0
1671211472.408,15.137,-20.508,-29.785,-19.043,262.695,0
1671211472.412,-16.113,-22.949,-21.973,-17.578,0.977,0
1671211472.416,-68.359,-20.020,-17.578,-22.461,-49.316,0
1671211472.420,-72.266,-23.438,-24.414,-19.531,57.129,0
1671211472.424,-35.645,-22.949,-25.391,-39.062,-53.223,0
1671211472.425,4.883,-17.578,-22.461,-41.992,-136.230,0
1671211472.429,-4.395,-15.137,-19.043,-19.531,-46.875,0
1671211472.433,-56.152,-14.160,-13.184,-11.719,70.312,0
1671211472.437,-73.730,-20.020,-14.160,-27.832,23.926,0
1671211472.441,-35.156,-21.973,-23.926,-40.527,-109.375,0
1671211472.445,9.277,-17.578,-23.438,-25.391,2.930,0
1671211472.449,6.836,-20.020,-20.020,-2.930,399.414,0
1671211472.452,-46.387,-18.555,-24.414,-14.160,232.422,0
1671211472.456,-76.172,-16.113,-24.414,-36.621,-108.887,0
1671211472.460,-41.992,-22.461,-21.973,-42.969,-57.129,0
1671211472.464,7.324,-22.461,-23.926,-37.109,-4.395,0
1671211472.468,0.488,-23.926,-26.367,-33.691,-84.961,0
1671211472.472,-40.039,-20.996,-15.137,-21.484,-114.746,0
1671211472.476,-62.988,-15.137,-10.254,-22.461,-45.410,0
1671211472.480,-43.457,-20.508,-18.555,-43.945,-91.309,0
1671211472.484,10.254,-24.414,-14.648,-37.109,-171.387,0
1671211472.488,18.066,-23.438,-9.766,-17.090,-92.773,0
1671211472.492,-36.133,-24.414,-17.090,-9.766,75.195,0
1671211472.496,-71.777,-23.438,-16.602,-17.090,-10.254,0
1671211472.499,-40.527,-18.066,-13.184,-31.250,-271.484,0
1671211472.503,15.625,-11.230,-23.438,-33.691,-307.617,0
1671211472.507,29.785,-14.160,-29.297,-21.973,-35.645,0
1671211472.511,-23.926,-21.973,-21.973,-28.320,73.730,0
1671211472.515,-66.895,-12.207,-20.508,-39.062,-50.781,0
1671211472.530,-46.387,-8.789,-26.855,-32.227,-155.273,0
1671211472.534,2.930,-12.207,-18.555,-17.578,-16.113,0
1671211472.538,21.973,-10.254,-11.719,-15.625,29.297,0
1671211472.542,-19.531,-9.766,-15.137,-19.531,-88.867,0
1671211472.546,-66.406,-6.836,-17.090,-25.879,-21.484,0
1671211472.550,-58.594,-7.812,-28.320,-27.344,204.102,0
1671211472.554,-17.090,-10.254,-31.738,-32.227,97.168,0
1671211472.557,6.348,-12.695,-20.996,-27.832,-138.184,0
1671211472.561,-18.066,-11.230,-19.531,-16.113,-68.848,0
1671211472.565,-62.012,-9.766,-24.414,-22.461,0.977,0
1671211472.569,-62.012,-8.301,-28.809,-35.645,-139.160,0
1671211472.573,-8.789,-5.371,-25.879,-37.109,-151.367,0
1671211472.575,25.879,-6.836,-23.926,-28.809,-28.320,0
1671211472.579,-4.883,-13.672,-29.785,-25.879,15.137,0
1671211472.583,-56.152,-12.207,-24.414,-28.320,36.133,0
1671211472.587,-70.801,-8.789,-19.043,-28.320,-19.531,0
1671211472.591,-29.785,-10.254,-28.320,-27.832,35.645,0
1671211472.595,3.418,-12.207,-32.227,-23.926,109.863,0
1671211472.599,-16.113,-13.672,-20.508,-12.207,95.703,0
1671211472.602,-69.824,-16.113,-28.320,-15.625,54.688,0
1671211472.606,-83.496,-17.578,-33.203,-19.531,144.531,0
1671211472.610,-34.180,-14.160,-26.855,-23.926,93.750,0
1671211472.614,11.719,-13.184,-31.250,-29.785,-111.816,0
1671211472.618,-1.953,-16.113,-32.227,-22.949,-72.754,0
1671211472.620,-45.898,-10.254,-23.438,-22.949,0.000,0
1671211472.624,-68.359,-11.230,-24.902,-38.086,-36.133,0
1671211472.628,-42.969,-12.695,-23.926,-39.062,-70.801,0
1671211472.632,9.277,-8.789,-13.184,-26.367,31.250,0
1671211472.636,5.371,-10.742,-17.578,-18.066,219.727,0
1671211472.640,-57.129,-12.207,-22.949,-32.715,121.582,0
1671211472.644,-87.402,-17.090,-21.973,-49.316,-22.949,0
1671211472.647,-52.734,-17.090,-20.508,-44.434,127.930,0
1671211472.651,3.418,-12.207,-23.438,-32.227,305.664,0
1671211472.655,5.371,-13.184,-33.203,-28.320,57.617,0
1671211472.659,-50.293,-16.113,-29.297,-25.391,-100.098,0
1671211472.663,-83.984,-16.113,-20.020,-31.250,-13.672,0
1671211472.665,-54.199,-22.461,-14.160,-41.016,-23.926,0
1671211472.669,5.859,-22.949,-18.066,-36.621,-86.426,0
1671211472.673,19.531,-19.531,-29.785,-26.855,4.883,0
1671211472.677,-29.785,-21.973,-28.809,-26.855,47.852,0
1671211472.681,-74.707,-17.090,-20.996,-29.297,-41.016,0
1671211472.685,-59.082,-17.578,-21.484,-38.086,29.297,0
1671211472.689,-5.371,-23.438,-24.902,-37.598,34.180,0
1671211472.692,13.184,-20.996,-19.531,-16.113,203.613,0
1671211472.696,-29.785,-18.066,-19.531,-10.254,351.074,0
1671211472.700,-79.102,-25.391,-29.297,-28.320,-14.160,0
1671211472.704,-71.777,-29.297,-28.809,-39.551,-119.141,0
1671211472.708,-14.160,-32.227,-23.438,-31.250,82.031,0
1671211472.710,7.324,-26.367,-18.555,-24.902,60.547,0
1671211472.714,-34.180,-20.996,-21.484,-28.320,-24.414,0
1671211472.718,-74.707,-25.391,-20.996,-25.879,62.500,0
1671211472.722,-63.477,-20.508,-20.020,-23.438,108.398,0
1671211472.726,-18.066,-20.508,-26.367,-30.273,-71.777,0
1671211472.730,11.230,-27.832,-29.785,-27.344,-104.492,0
1671211472.734,6.836,-23.926,-41.016,-0.977,71.289,0
1671211472.737,-22.949,-13.672,-31.250,18.555,270.020,0
1671211472.741,-65.918,-21.484,1.465,-29.297,43.945,0
1671211472.745,-30.273,-33.691,5.859,-41.992,-156.250,0
1671211472.749,25.879,-35.156,-4.883,-16.113,-62.012,0
1671211472.753,-20.020,-46.875,2.930,-32.715,32.715,0
1671211472.758,-72.754,-57.617,12.207,-34.180,-60.547,0
1671211472.762,-85.449,-60.547,11.719,-40.039,-112.305,0
1671211472.766,-38.574,-62.500,18.555,-37.109,16.602,0
1671211472.770,18.555,-62.500,34.668,-12.207,30.762,0
1671211472.774,-4.883,-64.941,40.039,-7.324,-56.152,0
1671211472.778,-61.035,-72.266,38.574,-5.859,21.484,0
1671211472.782,-79.590,-81.543,45.898,-11.230,205.566,0
1671211472.785,-36.133,-80.566,49.316,-12.207,118.652,0
1671211472.789,14.160,-78.125,49.805,-0.977,-125.977,0
1671211472.793,7.324,-76.172,56.641,16.602,-104.980,0
1671211472.797,-37.109,-71.289,58.594,17.090,-22.461,0
1671211472.801,-57.129,-69.824,42.969,4.883,-92.285,0
1671211472.816,-14.648,-64.453,34.180,0.000,-205.078,0
1671211472.820,41.504,-54.199,41.016,12.207,-141.602,0
1671211472.824,40.039,-52.734,42.480,28.320,66.895,0
1671211472.828,-15.137,-58.105,34.180,22.949,80.078,0
1671211472.832,-52.246,-60.547,33.691,9.766,-60.059,0
1671211472.836,-23.438,-59.082,37.598,5.859,-79.102,0
1671211472.840,26.367,-53.223,29.785,13.184,294.922,0
1671211472.843,29.785,-48.340,24.902,20.996,335.938,0
1671211472.847,-21.973,-48.340,20.020,16.602,17.090,0
1671211472.851,-60.547,-45.898,18.555,6.836,-30.273,0
1671211472.855,-39.551,-43.457,20.996,-9.277,-51.270,0
1671211472.859,15.137,-43.945,15.625,-6.348,-94.238,0
1671211472.847,35.645,-36.133,20.508,12.207,-83.008,0
1671211472.851,-6.836,-23.438,24.902,12.695,-21.973,0
1671211472.855,-53.223,-30.273,14.648,-11.719,-36.133,0
1671211472.859,-38.574,-34.668,6.836,-17.578,-116.211,0
1671211472.863,19.043,-30.273,1.465,-10.742,-101.562,0
1671211472.867,31.738,-32.227,-0.977,-7.324,83.008,0
1671211472.871,-14.160,-36.133,-0.977,-4.395,93.750,0
1671211472.874,-67.383,-36.621,-2.930,-15.625,-21.484,0
1671211472.878,-66.406,-36.133,-1.953,-24.902,-99.121,0
1671211472.882,-4.883,-34.668,-2.441,-12.207,101.074,0
1671211472.886,25.391,-31.250,-4.883,-5.859,202.148,0
1671211472.890,-10.742,-29.785,-8.789,-10.254,-27.344,0
1671211472.905,-58.594,-27.344,-10.742,-15.625,-107.910,0
1671211472.909,-62.500,-31.738,-18.066,-27.832,-24.414,0
1671211472.913,-13.184,-36.133,-14.160,-22.949,33.691,0
1671211472.917,14.648,-32.715,-4.883,-17.090,-74.707,0
1671211472.921,-11.230,-31.738,-3.418,-10.254,-23.926,0
1671211472.925,-52.246,-32.227,-6.348,-0.488,299.316,0
1671211472.929,-65.918,-28.320,-17.090,-20.996,147.949,0
1671211472.932,-21.484,-30.273,-18.066,-34.180,-131.836,0
1671211472.936,24.414,-28.320,-12.207,-12.207,41.016,0
1671211472.940,1.465,-23.926,-15.137,-1.953,262.695,0
1671211472.944,-66.406,-26.855,-17.578,-25.391,46.875,0
1671211472.948,-83.008,-27.344,-9.766,-33.203,-95.215,0
1671211472.950,-27.832,-18.066,-5.371,-33.203,-20.020,0
1671211472.954,17.578,-11.719,0.977,-22.949,-18.555,0
1671211472.958,3.906,-16.113,-2.441,-13.672,-17.090,0
1671211472.962,-44.922,-18.555,-9.766,-19.043,-31.738,0
1671211472.966,-69.336,-21.484,-15.137,-27.832,36.621,0
1671211472.970,-24.414,-20.996,-15.137,-29.297,13.672,0
1671211472.974,28.809,-17.578,-13.672,-19.531,-49.805,0
1671211472.977,16.113,-17.578,-11.719,-7.324,-19.043,0
1671211472.981,-38.086,-16.602,-11.719,1.953,148.926,0
1671211472.985,-73.242,-18.066,-21.484,-10.742,119.629,0
1671211472.989,-44.434,-23.438,-21.973,-26.855,-113.281,0
1671211472.993,10.742,-19.531,-18.066,-19.531,-94.238,0
1671211472.995,6.836,-19.531,-20.020,-5.371,14.648,0
1671211472.999,-47.852,-21.973,-21.973,-7.324,-11.719,0
1671211473.003,-76.660,-20.996,-22.461,-23.926,-8.789,0
1671211473.007,-49.805,-18.066,-24.902,-35.645,-30.273,0
1671211473.011,-7.324,-20.996,-26.367,-32.227,67.383,0
1671211473.015,2.930,-20.996,-26.855,-30.762,68.359,0
1671211473.019,-28.320,-17.578,-25.391,-27.832,-7.324,0
1671211473.022,-69.336,-16.113,-18.066,-27.344,-13.672,0
1671211473.026,-63.965,-22.461,-20.508,-31.250,112.305,0
1671211473.030,-9.766,-19.531,-18.066,-33.691,-67.383,0
1671211473.034,19.043,-12.695,-12.695,-19.043,-172.852,0
1671211473.038,-16.113,-16.602,-19.043,-11.230,-41.504,0
1671211473.041,-65.430,-18.066,-25.879,-25.391,-46.387,0
1671211473.045,-60.547,-20.996,-23.438,-30.762,-80.078,0
1671211473.049,-8.789,-28.320,-26.367,-33.203,-24.902,0
1671211473.053,22.461,-22.949,-23.438,-23.438,55.664,0
1671211473.057,-20.020,-20.020,-23.926,-10.254,41.504,0
1671211473.061,-74.219,-18.066,-21.484,-18.066,6.348,0
1671211473.065,-65.430,-19.043,-16.113,-24.414,7.812,0
1671211473.068,3.418,-26.367,-17.578,-5.371,135.254,0
1671211473.072,34.180,-14.648,-24.902,-4.883,158.691,0
1671211473.076,-16.113,0.000,-28.809,-30.273,-52.734,0
1671211473.080,-61.523,1.465,-33.203,-40.039,-136.230,0
1671211473.084,-66.895,4.395,-46.387,-48.340,-72.266,0
1671211473.085,-22.949,6.836,-43.945,-45.898,-64.453,0
1671211473.089,25.391,3.906,-41.504,-31.738,-87.402,0
1671211473.093,3.418,2.441,-45.898,-24.414,120.605,0
1671211473.097,-51.270,1.953,-40.039,-21.973,321.289,0
1671211473.101,-72.266,3.906,-38.574,-39.551,101.562,0
1671211473.105,-25.391,0.977,-41.016,-43.945,-27.344,0
1671211473.109,21.484,-0.488,-34.180,-22.949,122.070,0
1671211473.112,-4.395,-2.930,-32.715,-12.695,338.867,0
1671211473.116,-65.430,-8.789,-40.039,-36.621,143.555,0
1671211473.120,-82.520,-12.207,-43.457,-56.152,-111.328,0
1671211473.124,-33.691,-12.695,-44.434,-46.875,-114.258,0
1671211473.128,14.160,-7.812,-38.086,-33.203,-137.207,0
1671211473.131,3.906,-4.883,-29.297,-20.996,-96.680,0
1671211473.135,-45.898,-13.672,-32.227,-25.879,-127.930,0
1671211473.139,-68.359,-22.461,-36.621,-40.527,-143.555,0
1671211473.143,-31.738,-14.160,-37.109,-36.133,-132.812,0
1671211473.147,18.066,-7.812,-34.180,-25.391,-167.969,0
1671211473.151,21.484,-6.348,-32.227,-18.555,-76.660,0
1671211473.155,-24.902,-12.695,-35.156,-17.578,197.754,99
1671211473.158,-72.266,-15.625,-27.832,-33.203,168.945,0
1671211473.162,-49.805,-9.766,-27.344,-47.852,-146.973,0
1671211473.166,-0.977,-19.531,-40.527,-49.316,-115.723,0
1671211473.170,8.301,-24.414,-43.457,-35.156,118.652,0
1671211473.174,-32.227,-19.531,-29.297,-27.832,-3.418,0
1671211473.175,-70.312,-16.113,-26.367,-32.715,-165.039,0
1671211473.179,-49.316,-19.043,-32.227,-33.203,-151.367,0
1671211473.183,8.301,-19.043,-22.949,-29.785,-19.043,0
1671211473.187,22.461,-16.602,-25.391,-24.902,-36.133,0
1671211473.191,-28.809,-23.438,-32.227,-24.902,-82.520,0
1671211473.195,-69.824,-28.809,-33.203,-27.832,-37.109,0
1671211473.199,-56.641,-25.391,-31.250,-32.227,133.789,0
1671211473.202,-12.695,-22.949,-22.461,-41.992,-16.602,0
1671211473.206,11.719,-17.090,-17.578,-37.109,-180.176,0
1671211473.210,-19.043,-17.578,-23.926,-14.648,-67.383,0
1671211473.214,-64.941,-23.926,-31.250,-23.926,41.992,0
1671211473.218,-59.082,-21.484,-28.809,-40.527,-50.293,0
1671211473.223,-7.812,-20.020,-27.344,-30.762,-192.871,0
1671211473.227,20.020,-20.508,-29.785,-16.113,-77.637,0
1671211473.231,-12.695,-17.090,-27.832,-7.324,37.598,0
1671211473.235,-62.012,-16.602,-19.531,-17.090,-81.055,0
1671211473.239,-61.035,-18.555,-8.301,-31.250,-141.602,0
1671211473.243,-7.324,-18.555,-17.090,-20.996,30.273,0
1671211473.247,24.902,-15.137,-29.785,-14.160,11.230,0
1671211473.250,-6.836,-16.113,-24.414,-18.555,-101.074,0
1671211473.254,-56.641,-22.949,-24.414,-13.672,-104.492,0
1671211473.258,-60.547,-23.438,-20.020,-11.230,99.121,0
1671211473.262,-18.066,-12.695,-11.719,-25.879,71.777,0
1671211473.266,10.254,-8.789,-17.578,-29.297,-99.609,0
1671211473.281,-7.324,-12.695,-26.855,-16.602,-59.082,0
1671211473.285,-59.082,-12.695,-28.809,-22.461,103.027,0
1671211473.289,-84.961,-16.602,-20.996,-41.504,145.996,0
1671211473.293,-46.875,-24.414,-20.020,-49.316,-27.832,0
1671211473.297,7.812,-19.043,-15.137,-35.156,-65.918,0
1671211473.301,3.906,-10.742,-13.184,-14.648,277.344,0
1671211473.305,-57.129,-10.742,-26.367,-27.832,296.875,0
1671211473.308,-83.984,-13.672,-29.297,-52.734,-82.031,0
1671211473.312,-44.922,-20.508,-24.902,-43.945,-100.098,0
1671211473.316,-0.977,-20.996,-24.902,-37.598,-13.672,0
1671211473.320,-7.812,-19.043,-27.344,-42.969,-37.109,0
1671211473.324,-47.363,-17.578,-23.438,-38.574,-70.801,0
1671211473.325,-74.707,-16.602,-25.879,-37.598,-50.293,0
1671211473.329,-48.828,-13.184,-22.461,-38.086,-85.938,0
1671211473.333,2.441,-15.137,-24.414,-40.527,-165.527,0
1671211473.337,0.488,-15.625,-32.715,-39.551,-143.555,0
1671211473.341,-45.898,-10.254,-27.344,-26.367,12.207,0
1671211473.345,-79.590,-17.578,-27.832,-31.738,85.938,0
1671211473.349,-58.105,-21.484,-31.250,-42.480,26.367,0
1671211473.352,-11.230,-20.996,-20.020,-39.062,-0.488,0
1671211473.356,2.930,-17.578,-17.578,-19.043,218.750,0
1671211473.360,-42.480,-14.648,-27.832,-15.137,358.398,0
1671211473.364,-83.984,-12.695,-23.926,-40.527,-34.180,0
1671211473.368,-58.105,-11.719,-17.090,-47.363,-166.504,0
1671211473.370,-7.324,-12.207,-20.996,-39.551,-88.379,0
1671211473.374,4.395,-11.719,-23.438,-31.250,-49.316,0
1671211473.378,-29.297,-15.625,-20.996,-23.926,-30.762,0
1671211473.382,-62.988,-16.113,-8.789,-31.250,-42.969,0
1671211473.386,-53.711,-13.184,-1.953,-28.809,130.859,0
1671211473.390,-5.859,-12.695,-23.438,-29.785,96.191,0
1671211473.394,17.090,-15.625,-36.133,-27.344,-20.508,0
1671211473.397,-14.160,-18.555,-33.203,-14.160,38.086,0
1671211473.401,-59.082,-17.578,-28.809,-13.184,290.039,0
1671211473.405,-62.012,-16.602,-18.555,-28.809,95.215,0
1671211473.409,-14.160,-17.090,-16.113,-31.738,-216.309,0
1671211473.413,21.973,-17.090,-19.531,-15.625,-144.531,0
1671211473.417,-3.418,-15.625,-19.531,-7.812,-71.289,0
1671211473.421,-49.805,-16.602,-17.578,-19.043,-47.363,0
1671211473.425,-56.641,-19.043,-29.297,-33.691,-59.570,0
1671211473.429,-7.812,-21.484,-35.156,-31.738,-72.754,0
1671211473.433,33.203,-17.090,-25.391,-20.996,-77.637,0
1671211473.437,8.301,-13.184,-28.320,-16.113,-82.031,0
1671211473.441,-53.223,-19.531,-30.273,-21.973,-7.812,0
1671211473.444,-75.684,-27.344,-33.203,-31.250,104.004,0
1671211473.448,-37.598,-27.344,-34.668,-36.621,18.066,0
1671211473.452,2.441,-25.879,-22.949,-36.133,-169.434,0
1671211473.456,-10.742,-24.414,-17.090,-22.949,-19.043,0
1671211473.460,-59.570,-22.461,-20.020,-16.602,155.762,0
1671211473.460,-80.078,-20.020,-28.320,-36.621,-6.836,0
1671211473.464,-39.062,-20.020,-29.785,-47.363,-108.398,0
1671211473.468,9.277,-19.531,-19.043,-37.109,38.574,0
1671211473.472,-1.953,-15.137,-15.625,-31.250,33.691,0
1671211473.476,-40.527,-11.230,-25.879,-18.555,-55.664,0
1671211473.480,-52.734,-8.301,-29.785,-15.137,-20.996,0
1671211473.484,-38.574,-14.160,-15.137,-39.062,67.871,0
1671211473.487,-7.324,-23.438,-10.254,-32.227,293.945,0
1671211473.491,-4.883,-26.855,-7.812,-18.066,195.801,0
1671211473.495,-52.246,-30.762,0.488,-29.297,-78.613,0
1671211473.499,-97.656,-35.645,8.301,-50.781,-90.820,0
1671211473.503,-69.824,-40.039,9.277,-55.664,-83.984,0
1671211473.508,-13.672,-44.434,17.578,-40.527,-117.188,0
1671211473.512,-17.578,-52.246,15.625,-36.133,5.859,0
1671211473.516,-57.129,-52.246,11.719,-28.320,89.355,0
1671211473.520,-87.402,-46.875,22.949,-27.832,-51.758,0
1671211473.524,-72.754,-51.758,22.949,-36.133,-185.547,0
1671211473.528,-10.742,-46.387,23.926,-23.438,-89.844,0
1671211473.532,20.508,-38.574,27.344,2.441,152.832,0
1671211473.535,-20.020,-34.180,24.902,-1.465,125.000,0
1671211473.539,-70.801,-32.715,18.066,-28.320,-120.117,0
1671211473.543,-60.059,-33.691,7.812,-34.180,-150.391,0
1671211473.547,-4.395,-34.668,12.695,-20.996,-92.773,0
1671211473.551,15.625,-35.156,8.789,-10.254,-119.629,0
1671211473.550,-23.438,-31.738,0.000,-8.789,-106.934,0
1671211473.554,-70.801,-33.203,4.883,-14.648,-62.012,0
1671211473.558,-67.383,-31.738,4.883,-21.973,99.121,0
1671211473.562,-10.742,-26.367,5.371,-25.879,57.617,0
1671211473.566,20.996,-25.391,4.395,-14.648,-40.039,0
1671211473.570,-19.531,-31.250,-1.953,-12.207,71.777,0
1671211473.574,-75.684,-32.227,-9.277,-10.254,347.656,0
1671211473.577,-80.078,-31.250,-10.254,-20.508,342.773,0
1671211473.581,-30.762,-30.762,-6.348,-36.621,-40.527,0
1671211473.585,7.324,-26.367,-5.859,-27.832,-105.469,0
1671211473.589,-23.926,-26.367,-6.836,-23.438,15.137,0
1671211473.593,-73.242,-21.973,-3.906,-24.414,-58.594,0
1671211473.597,-71.777,-13.672,-0.488,-24.414,-162.598,0
1671211473.601,-26.367,-20.508,-0.977,-31.738,-100.098,0
1671211473.605,13.184,-23.926,-5.371,-23.926,-98.633,0
1671211473.609,-11.719,-21.484,-13.184,-10.742,-148.438,0
1671211473.613,-65.918,-21.973,-16.113,-15.137,-95.215,0
1671211473.617,-79.102,-25.879,-14.160,-21.973,0.977,0
1671211473.621,-40.039,-31.250,-14.648,-36.621,9.277,1
1671211473.624,9.277,-23.926,-11.230,-29.297,-47.852,0
1671211473.628,2.930,-19.043,-8.301,-5.859,-66.895,0
1671211473.632,-49.316,-26.367,-19.531,-4.395,191.895,0
1671211473.636,-68.359,-22.461,-15.137,-14.648,190.430,0
1671211473.640,-26.855,-20.508,-1.465,-28.320,-156.250,0
1671211473.655,20.996,-22.461,-12.207,-25.879,-162.598,0
1671211473.659,17.090,-22.949,-23.926,-9.766,-20.020,0
1671211473.663,-34.668,-20.996,-21.484,-6.348,78.613,0
1671211473.667,-64.453,-18.066,-16.113,-20.508,-20.508,0
1671211473.671,-27.344,-18.555,-17.090,-19.531,-65.918,0
1671211473.675,26.855,-16.113,-15.137,-2.930,209.473,0
1671211473.679,29.297,-10.742,-12.207,-0.488,127.930,0
1671211473.682,-25.879,-8.789,-17.090,-12.207,-136.230,0
1671211473.686,-65.430,-15.137,-21.973,-19.043,-83.984,0
1671211473.690,-32.715,-12.207,-17.578,-20.508,128.906,0
1671211473.694,21.484,-8.789,-16.602,-21.973,74.707,0
1671211473.698,32.227,-8.789,-18.555,-4.883,-63.477,0
1671211473.703,-14.648,-9.277,-18.066,-0.977,16.602,0
1671211473.707,-61.523,-10.254,-8.789,-10.254,12.207,0
1671211473.711,-43.945,-9.277,-9.277,-22.949,-183.105,0
1671211473.715,4.883,-16.602,-25.879,-39.062,-185.547,0
1671211473.719,18.555,-18.066,-33.203,-31.250,-38.086,0
1671211473.723,-23.438,-14.160,-28.809,-21.973,-6.836,0
1671211473.727,-65.918,-17.578,-22.949,-30.762,-94.238,0
1671211473.730,-51.758,-21.973,-18.066,-32.715,-154.297,0
1671211473.734,4.395,-18.066,-17.090,-15.625,87.402,0
1671211473.738,22.949,-15.137,-28.320,-13.672,207.031,0
1671211473.742,-12.695,-15.137,-29.297,-16.113,0.000,0
1671211473.746,-54.688,-14.160,-24.902,-11.230,-70.801,0
1671211473.746,-58.105,-14.648,-26.855,-26.367,-67.871,0
1671211473.750,-6.348,-18.555,-22.949,-27.832,-7.812,0
1671211473.754,31.738,-15.625,-18.066,-13.184,-2.930,0
1671211473.758,-1.465,-12.695,-15.137,-10.254,-81.055,0
1671211473.762,-57.617,-19.043,-17.090,-23.926,-13.672,0
1671211473.766,-55.664,-22.461,-25.391,-35.645,49.316,0
1671211473.770,-12.695,-16.113,-26.367,-34.668,39.551,0
1671211473.773,21.973,-12.207,-21.484,-19.531,14.648,0
1671211473.777,5.371,-14.160,-19.531,-1.953,334.473,0
1671211473.781,-54.199,-17.090,-25.391,-9.277,424.805,0
1671211473.785,-63.477,-24.414,-24.902,-14.648,25.879,0
1671211473.789,4.883,-26.367,-23.926,0.488,-68.848,0
1671211473.790,44.434,-5.371,-28.809,-5.859,-30.762,0
1671211473.794,9.277,3.418,-26.367,-25.391,-72.266,0
1671211473.798,-49.805,0.000,-48.340,-42.480,-60.059,0
1671211473.802,-76.172,2.930,-70.312,-59.570,-10.254,0
1671211473.806,-36.133,7.324,-69.336,-54.688,-25.391,0
1671211473.810,-0.977,15.137,-72.754,-53.223,-16.602,0
1671211473.814,-11.230,17.090,-76.660,-53.223,31.738,0
1671211473.817,-53.223,16.602,-71.777,-44.434,173.340,0
1671211473.821,-88.867,9.277,-65.430,-47.363,273.926,0
1671211473.825,-70.312,4.395,-62.500,-59.082,-46.875,0
1671211473.829,-18.066,5.859,-55.664,-51.758,-148.438,0
1671211473.833,-0.488,5.859,-55.664,-35.645,-34.180,0
1671211473.835,-37.598,9.277,-53.223,-27.344,-82.520,0
1671211473.839,-72.754,13.672,-48.340,-37.109,-109.863,0
1671211473.843,-48.340,11.230,-49.805,-47.852,-12.695,0
1671211473.847,4.395,4.395,-46.387,-34.180,86.914,0
1671211473.851,11.230,1.465,-40.527,-28.320,21.484,0
1671211473.855,-36.621,0.977,-41.992,-35.156,27.832,0
1671211473.859,-80.078,-8.301,-45.410,-41.016,59.570,0
1671211473.862,-55.664,-15.137,-42.480,-33.203,274.414,0
1671211473.866,-4.395,-8.301,-41.504,-31.250,136.230,0
1671211473.870,13.184,-6.348,-35.645,-32.715,-137.695,0
1671211473.874,-21.484,-2.441,-36.133,-21.973,-73.242,0
1671211473.878,-75.195,-3.418,-45.410,-35.156,-78.613,0
1671211473.881,-72.266,-10.742,-45.410,-49.805,-125.977,0
1671211473.885,-11.719,-8.789,-41.504,-41.992,-137.695,0
1671211473.889,18.066,-6.348,-38.086,-27.344,-39.062,0
1671211473.893,-21.484,-11.230,-41.992,-25.391,21.973,0
1671211473.897,-71.289,-8.301,-34.180,-29.785,-38.574,0
1671211473.901,-71.777,-3.906,-28.809,-36.133,-25.879,0
1671211473.905,-12.207,-7.324,-30.762,-24.414,222.656,0
1671211473.908,31.250,0.488,-28.320,-6.348,227.051,0
1671211473.912,-5.371,-1.953,-32.715,-18.066,-62.012,0
1671211473.916,-63.965,-11.719,-36.133,-32.227,-56.641,0
1671211473.920,-65.430,-10.742,-35.156,-36.621,50.781,0
1671211473.924,-22.949,-13.184,-29.785,-38.574,-34.668,0
1671211473.925,12.207,-14.648,-26.855,-26.855,-147.461,0
1671211473.929,-5.371,-14.648,-30.273,-7.812,-64.941,0
1671211473.933,-55.664,-17.578,-38.086,-7.324,178.711,0
1671211473.937,-65.918,-14.648,-31.250,-24.902,8.789,0
1671211473.941,-21.484,-12.695,-24.902,-29.297,-136.230,0
1671211473.945,24.902,-17.578,-31.738,-16.113,116.211,0
1671211473.949,4.883,-20.996,-38.574,-5.859,448.730,0
1671211473.952,-56.152,-14.648,-33.203,-24.414,199.219,0
1671211473.956,-68.848,-12.207,-24.902,-37.109,-110.352,0
1671211473.960,-28.320,-15.625,-32.715,-38.086,-65.430,0
1671211473.964,15.625,-17.090,-37.598,-30.273,-54.199,0
1671211473.968,8.789,-17.578,-32.715,-11.230,-145.020,0
1671211473.973,-43.945,-17.090,-26.855,-7.812,-132.324,0
1671211473.977,-74.219,-17.578,-30.273,-22.949,6.348,0
1671211473.981,-39.551,-13.672,-35.645,-31.738,-19.531,0
1671211473.985,9.766,-11.230,-27.344,-26.367,-157.715,0
1671211473.989,3.418,-14.648,-15.625,-7.812,-92.773,0
1671211473.993,-42.480,-11.230,-20.508,2.441,139.648,0
1671211473.997,-69.824,-13.672,-29.785,-15.137,72.266,0
1671211474.000,-48.340,-24.902,-32.715,-34.180,-104.004,0
1671211474.004,6.836,-22.461,-30.273,-27.344,-118.652,0
1671211474.008,23.438,-13.184,-27.832,-9.766,68.359,0
1671211474.012,-32.715,-12.695,-27.832,-16.113,76.172,0
1671211474.016,-82.520,-17.090,-24.902,-32.715,-92.285,0
1671211474.030,-56.641,-17.090,-21.484,-27.832,-101.074,0
1671211474.034,-0.977,-18.066,-23.438,-19.531,-84.473,0
1671211474.038,0.488,-21.973,-35.156,-21.973,15.625,0
1671211474.042,-47.363,-21.973,-36.133,-24.902,-15.625,0
1671211474.046,-84.473,-20.996,-35.645,-33.691,-71.777,0
1671211474.050,-62.500,-20.020,-34.180,-28.809,327.637,0
1671211474.054,-4.395,-15.625,-22.461,-23.438,389.648,0
1671211474.057,12.207,-12.207,-14.160,-28.320,-11.719,0
1671211474.061,-27.344,-12.207,-12.207,-19.043,-20.020,0
1671211474.065,-77.637,-18.555,-17.090,-24.902,29.297,0
1671211474.069,-70.312,-15.625,-20.996,-39.551,-135.742,0
1671211474.073,-12.207,-12.207,-19.043,-31.738,-189.453,0
1671211474.075,12.695,-14.648,-13.184,-17.578,-86.426,0
1671211474.079,-21.973,-12.207,-10.742,-13.672,-9.277,0
1671211474.083,-66.406,-14.160,-16.113,-20.508,-81.543,0
1671211474.087,-63.965,-17.578,-20.996,-18.555,-104.492,0
1671211474.091,-14.648,-15.137,-21.973,-18.555,-18.066,0
1671211474.095,12.695,-14.648,-17.578,-22.949,89.844,0
1671211474.099,-14.160,-15.625,-21.973,-16.602,197.266,0
1671211474.102,-62.500,-18.555,-22.461,-14.648,51.758,0
1671211474.106,-78.613,-20.508,-18.555,-19.043,110.840,0
1671211474.110,-38.086,-18.066,-21.973,-28.809,243.652,0
1671211474.114,8.789,-17.578,-22.461,-29.297,-31.738,0
1671211474.118,-9.277,-15.625,-20.996,-19.043,-54.688,0
1671211474.121,-58.105,-13.184,-20.508,-18.066,10.742,0
1671211474.125,-69.824,-12.207,-17.578,-30.273,-104.492,0
1671211474.129,-32.227,-19.043,-19.531,-41.016,-86.426,0
1671211474.133,5.371,-24.902,-23.438,-28.809,10.742,0
1671211474.137,-7.324,-17.090,-16.113,-8.789,164.551,0
1671211474.141,-58.105,-20.996,-14.648,-12.207,180.176,0
1671211474.145,-86.426,-29.785,-20.020,-34.180,-8.301,0
1671211474.148,-45.898,-27.832,-20.020,-34.668,-61.035,0
1671211474.152,0.488,-32.227,-20.508,-21.484,139.160,0
1671211474.156,-11.719,-30.273,-20.508,-20.508,87.402,0
1671211474.160,-59.082,-26.367,-25.391,-24.902,-48.828,0
1671211474.164,-86.914,-25.879,-21.973,-42.480,-90.332,0
1671211474.165,-56.152,-24.414,-17.578,-47.363,-71.777,0
1671211474.169,-0.977,-21.484,-18.066,-35.645,-123.047,0
1671211474.173,-5.371,-19.531,-19.531,-27.344,-89.355,0
1671211474.177,-44.922,-17.090,-25.391,-18.555,-0.488,0
1671211474.181,-66.895,-9.277,-20.508,-13.672,-51.758,0
1671211474.185,-71.289,-19.531,-14.648,-41.992,-13.184,0
1671211474.189,-26.367,-25.879,-7.324,-44.922,85.449,0
1671211474.192,-3.418,-25.879,-8.789,-20.020,224.121,0
1671211474.196,-63.965,-26.367,-11.230,-21.484,196.777,0
1671211474.200,-107.422,-25.879,-3.418,-42.969,-41.992,0
1671211474.204,-88.379,-30.762,-0.488,-60.059,-97.656,0
1671211474.208,-40.527,-32.227,-1.465,-57.129,-34.180,0
1671211474.211,-15.137,-29.297,-14.160,-47.852,2.930,0
1671211474.215,-51.758,-27.832,-21.973,-45.410,-9.277,0
1671211474.219,-93.262,-32.227,-24.414,-45.410,39.062,0
1671211474.223,-74.219,-35.645,-22.949,-47.852,225.098,0
1671211474.227,-25.879,-37.109,-22.949,-57.129,84.473,0
1671211474.231,3.418,-33.691,-20.508,-44.922,1.953,0
1671211474.235,-26.855,-27.344,-7.812,-27.344,134.766,0
1671211474.238,-71.289,-24.414,-3.906,-34.668,238.281,0
1671211474.242,-62.500,-18.066,-15.137,-51.270,-12.207,0
1671211474.246,-15.137,-17.578,-19.531,-48.340,-194.336,0
1671211474.250,11.719,-20.996,-18.555,-34.668,-61.035,0
1671211474.254,-23.438,-20.996,-24.414,-30.273,19.531,0
1671211474.256,-76.172,-24.902,-20.996,-29.297,-11.719,0
1671211474.260,-80.078,-23.926,-20.508,-35.156,-90.820,0
1671211474.264,-22.461,-16.113,-17.578,-27.832,-39.062,0
1671211474.268,12.207,-15.625,-19.043,-17.578,83.496,0
1671211474.272,-18.066,-21.484,-17.578,-16.602,41.016,0
1671211474.276,-69.824,-20.020,-6.836,-26.855,-95.215,0
1671211474.280,-82.520,-18.555,-15.137,-29.297,124.512,0
1671211474.283,-33.691,-25.879,-26.855,-20.508,261.230,0
1671211474.287,6.836,-19.043,-16.113,-37.598,-64.941,0
1671211474.291,-12.207,-11.719,-14.160,-37.598,-159.668,0
1671211474.295,-64.941,-16.602,-24.414,-31.250,-68.359,0
1671211474.299,-81.543,-18.066,-22.949,-46.875,-101.562,0
1671211474.301,-33.691,-13.184,-18.066,-52.246,-192.871,0
1671211474.305,15.137,-11.719,-18.066,-34.668,-116.699,0
1671211474.309,-0.488,-17.090,-19.043,-19.531,103.516,0
1671211474.313,-54.688,-22.461,-20.996,-30.762,8.789,0
1671211474.317,-80.566,-18.555,-22.949,-43.945,-137.695,0
1671211474.321,-37.598,-13.184,-15.625,-34.668,-5.859,0
1671211474.325,18.066,-10.254,-4.883,-13.184,357.422,0
1671211474.328,4.395,-11.230,-13.672,-18.555,274.902,0
1671211474.332,-45.410,-10.742,-15.625,-29.785,-62.988,0
1671211474.336,-64.941,-15.137,-10.742,-28.320,-68.359,0
1671211474.340,-37.109,-18.555,-17.578,-33.691,-19.043,0
1671211474.344,12.695,-10.254,-20.020,-34.668,-75.195,0
1671211474.347,18.066,-12.207,-21.973,-19.531,-96.191,0
1671211474.351,-34.180,-17.578,-26.367,-15.625,-35.156,0
1671211474.355,-80.078,-17.090,-27.832,-29.785,-22.949,0
1671211474.359,-57.617,-18.555,-27.832,-44.434,-93.262,0
1671211474.363,-2.441,-16.602,-22.461,-38.086,-108.398,0
1671211474.367,19.531,-14.160,-13.184,-8.301,145.020,0
1671211474.371,-27.344,-16.113,-12.207,-9.766,166.016,0
1671211474.374,-73.730,-17.090,-17.090,-31.250,-85.449,1
1671211474.378,-56.641,-20.508,-17.578,-40.039,-112.305,0
1671211474.382,-6.348,-22.949,-17.578,-27.344,183.594,0
1671211474.386,10.254,-23.926,-18.555,-14.648,203.613,0
1671211474.390,-31.738,-25.391,-15.137,-24.414,-21.973,0
1671211474.405,-76.172,-23.438,-14.648,-36.133,-60.059,0
1671211474.409,-63.965,-23.926,-19.043,-43.945,-70.312,0
1671211474.413,-7.812,-19.043,-18.555,-36.621,-20.020,0
1671211474.417,17.578,-18.066,-13.184,-23.438,-49.805,0
1671211474.421,-18.555,-20.020,-16.113,-10.742,-14.648,0
1671211474.425,-65.918,-19.043,-16.113,-7.324,327.637,0
1671211474.429,-67.383,-24.414,-14.160,-26.367,166.992,0
1671211474.432,-8.301,-20.996,-20.020,-35.645,-159.180,0
1671211474.436,38.086,-12.695,-15.625,-24.414,-57.129,0
1671211474.440,13.184,-13.184,-4.883,-10.742,107.910,0
1671211474.444,-39.551,-17.578,-16.113,-20.020,-21.973,0
1671211474.448,-52.246,-22.461,-27.832,-38.086,-119.141,0
1671211474.450,-8.301,-22.949,-23.438,-33.691,26.855,0
1671211474.454,27.344,-16.602,-15.137,-23.926,32.715,0
1671211474.458,-1.953,-24.414,-13.672,-25.879,-41.016,0
1671211474.462,-56.152,-28.320,-18.066,-26.367,-60.059,0
1671211474.466,-69.824,-23.438,-19.531,-28.809,-51.758,0
1671211474.470,-25.879,-23.926,-23.438,-41.504,-15.625,0
1671211474.474,23.438,-20.020,-20.508,-35.156,-28.320,0
1671211474.477,19.531,-18.555,-18.066,-24.902,-57.617,0
1671211474.481,-30.762,-22.461,-27.832,-27.344,129.395,0
1671211474.485,-63.477,-17.578,-30.273,-41.504,114.746,0
1671211474.489,-24.414,-10.742,-15.137,-49.316,-179.688,0
1671211474.493,21.484,-14.648,-13.184,-37.598,-203.125,0
1671211474.495,13.184,-19.043,-27.344,-29.297,-131.836,0
1671211474.499,-31.250,-19.043,-23.926,-27.344,-97.656,0
1671211474.503,-65.430,-17.578,-18.066,-42.969,-106.445,0
1671211474.507,-33.203,-19.043,-25.879,-58.594,-99.121,0
1671211474.511,21.484,-23.438,-33.203,-41.504,91.309,0
1671211474.515,19.043,-22.949,-31.738,-28.809,129.883,0
1671211474.519,-29.785,-20.996,-24.902,-30.762,-75.195,0
1671211474.522,-62.500,-19.531,-18.555,-31.250,-136.719,0
1671211474.526,-38.574,-19.531,-20.996,-30.273,95.215,0
1671211474.530,2.441,-20.996,-26.855,-39.062,-11.719,0
1671211474.534,14.160,-16.602,-23.926,-34.668,-169.434,0
1671211474.538,-23.438,-13.672,-17.578,-26.855,-84.473,0
1671211474.540,-66.895,-18.066,-16.602,-38.574,-83.984,0
1671211474.544,-50.293,-21.973,-21.973,-46.875,-187.500,0
1671211474.548,6.348,-17.578,-27.832,-41.504,-198.730,0
1671211474.552,26.855,-11.719,-22.461,-23.926,-84.473,0
1671211474.556,-20.020,-17.090,-22.949,-18.555,-18.066,0
1671211474.560,-64.453,-20.508,-17.090,-31.250,-21.973,0
1671211474.564,-47.852,-17.090,-15.137,-39.551,-79.590,0
1671211474.567,5.859,-18.066,-26.855,-22.461,108.887,0
1671211474.571,30.273,-14.648,-29.785,-3.418,266.113,0
1671211474.575,-12.695,-13.672,-25.879,-5.859,-5.371,0
1671211474.579,-67.871,-19.531,-28.809,-15.137,-135.254,0
1671211474.583,-67.871,-21.973,-25.879,-24.414,-120.605,0
1671211474.585,-19.043,-15.625,-17.090,-22.949,-157.227,0
1671211474.589,7.812,-12.695,-15.137,-15.137,-101.074,0
1671211474.593,-19.043,-14.648,-12.207,-3.906,90.332,0
1671211474.597,-63.965,-16.602,-19.531,-4.395,181.152,0
1671211474.601,-64.941,-19.043,-23.438,-29.785,-36.621,0
1671211474.605,-17.090,-18.066,-25.879,-39.062,-118.164,0
1671211474.609,16.602,-18.066,-25.879,-23.926,100.098,0
1671211474.612,-5.859,-16.602,-14.160,-1.953,282.227,0
1671211474.616,-56.641,-14.648,-16.602,-4.883,95.703,0
1671211474.620,-62.988,-17.090,-28.320,-19.531,-102.051,0
1671211474.624,-33.691,-14.160,-32.227,-32.715,-54.688,0
1671211474.628,-1.953,-9.766,-34.180,-32.227,31.250,0
1671211474.630,-7.812,-8.789,-31.250,-26.855,-20.508,0
1671211474.634,-50.781,-8.301,-26.855,-27.344,-62.012,0
1671211474.638,-67.383,-4.883,-24.414,-30.273,-40.039,0
1671211474.642,-36.133,-2.441,-25.879,-40.039,-58.105,0
1671211474.646,2.930,-5.371,-28.320,-32.227,-61.035,0
1671211474.650,-7.812,-13.184,-35.156,-12.695,4.883,0
1671211474.654,-68.848,-15.137,-36.621,-4.883,132.812,0
1671211474.657,-109.863,-14.160,-33.691,-23.438,4.395,0
1671211474.661,-81.543,-17.090,-36.133,-35.645,-145.996,0
1671211474.665,-28.809,-16.602,-32.227,-25.391,-77.148,0
1671211474.669,-26.855,-17.090,-31.738,-16.113,174.316,0
1671211474.673,-74.219,-8.789,-37.109,-24.414,193.359,0
1671211474.676,-100.098,-6.836,-28.320,-30.273,32.227,0
1671211474.680,-74.707,-17.578,-28.320,-37.109,14.160,0
1671211474.684,-20.508,-15.625,-31.738,-25.879,195.312,0
1671211474.688,-11.719,-9.766,-25.879,-13.184,147.949,0
1671211474.692,-60.059,-13.672,-26.855,-23.926,-49.805,0
1671211474.696,-100.586,-16.602,-31.738,-31.738,38.574,0
1671211474.700,-79.102,-20.996,-29.297,-27.344,182.617,0
1671211474.703,-27.344,-20.020,-27.344,-29.785,-11.719,0
1671211474.707,-16.602,-14.648,-30.273,-28.320,-90.820,0
1671211474.711,-51.758,-14.160,-19.043,-19.531,28.320,0
1671211474.715,-88.867,-12.695,-17.578,-25.391,27.344,0
1671211474.719,-71.289,-6.836,-20.508,-37.109,-66.406,0
1671211474.722,-18.066,-6.836,-18.555,-31.738,-75.684,0
1671211474.726,0.488,-16.113,-24.414,-15.137,-70.801,0
1671211474.730,-40.527,-23.438,-27.344,-13.672,-16.113,0
1671211474.734,-83.008,-21.973,-29.297,-24.414,62.500,0
1671211474.738,-76.660,-19.531,-28.320,-39.062,-40.527,0
1671211474.742,-29.785,-25.879,-30.273,-39.551,97.168,0
1671211474.746,0.000,-23.438,-34.180,-36.621,224.609,0
1671211474.749,-36.133,-16.602,-28.809,-41.016,24.414,0
1671211474.753,-86.426,-14.160,-24.902,-40.039,-37.598,0
1671211474.757,-80.078,-16.602,-29.297,-37.598,50.781,0
1671211474.761,-43.945,-20.020,-37.109,-51.270,-41.504,0
1671211474.765,-14.648,-20.020,-32.715,-49.316,-112.793,0
1671211474.780,-32.715,-13.672,-30.273,-35.645,-40.039,0
1671211474.784,-88.867,-12.207,-34.180,-39.551,0.488,0
1671211474.788,-106.445,-15.625,-30.273,-44.434,-3.418,0
1671211474.792,-65.918,-17.090,-23.926,-47.363,-74.707,0
1671211474.796,-24.414,-17.090,-20.020,-30.762,-35.156,0
1671211474.800,-46.387,-16.113,-16.113,-5.859,354.492,0
1671211474.804,-108.887,-24.902,-18.555,-19.531,275.879,0
1671211474.807,-130.371,-30.273,-30.762,-46.387,-63.965,0
1671211474.811,-89.355,-23.438,-27.832,-42.480,-34.668,0
1671211474.815,-35.156,-19.531,-25.391,-23.926,179.688,0
1671211474.819,-36.621,-20.996,-29.785,-21.484,21.484,0
1671211474.823,-86.426,-23.438,-28.809,-29.785,-137.695,0
1671211474.826,-109.375,-20.996,-21.484,-33.691,-82.031,0
1671211474.830,-68.848,-18.555,-18.066,-38.086,-119.629,0
1671211474.834,-14.160,-16.602,-17.578,-33.691,-138.672,0
1671211474.838,-12.695,-19.531,-17.578,-25.879,-90.820,0
1671211474.842,-58.105,-20.020,-26.367,-27.832,-37.109,0
1671211474.846,-82.031,-18.066,-23.438,-34.668,20.508,0
1671211474.850,-54.199,-20.020,-22.461,-38.086,-60.547,0
1671211474.853,-3.418,-19.531,-25.879,-30.762,-150.879,0
1671211474.857,11.719,-14.160,-20.508,-13.184,46.387,0
1671211474.861,-29.785,-16.113,-15.137,-12.207,146.484,0
1671211474.865,-64.941,-20.020,-17.090,-26.855,-112.793,0
1671211474.869,-34.180,-15.137,-19.531,-35.645,-253.906,0
1671211474.870,23.926,-12.695,-14.160,-27.832,-137.695,0
1671211474.874,34.668,-9.277,-15.137,-20.996,-103.516,0
1671211474.878,-6.348,-13.184,-27.832,-26.855,-137.695,0
1671211474.882,-49.316,-16.602,-25.391,-34.668,-136.230,0
1671211474.886,-36.621,-11.230,-20.020,-22.461,-33.203,0
1671211474.890,9.766,-14.160,-24.414,-21.484,-62.988,0
1671211474.894,18.555,-17.578,-20.996,-21.973,-85.938,0
1671211474.897,-23.926,-16.113,-20.996,-10.254,-18.555,0
1671211474.901,-72.754,-22.461,-24.902,-9.277,174.316,0
1671211474.905,-70.312,-22.949,-19.043,-30.762,-23.926,0
1671211474.909,-16.113,-20.996,-16.602,-39.551,-283.691,0
1671211474.913,20.996,-16.113,-17.090,-19.531,-121.094,0
1671211474.915,-5.859,-10.254,-13.672,-9.766,-17.578,0
1671211474.919,-57.617,-14.160,-20.020,-18.555,-128.906,0
1671211474.923,-63.965,-23.438,-31.738,-30.762,-212.891,0
1671211474.927,-9.277,-17.578,-22.949,-26.855,-119.141,0
1671211474.931,23.926,-10.742,-19.043,-9.277,-47.852,0
1671211474.935,-3.418,-12.695,-22.461,-6.348,14.648,0
1671211474.939,-46.875,-16.602,-20.996,-21.973,110.352,0
1671211474.942,-56.152,-17.090,-27.344,-26.855,139.648,0
1671211474.946,-16.602,-17.578,-32.227,-20.508,83.984,0
1671211474.950,22.461,-18.555,-25.391,-18.555,-91.797,0
1671211474.954,4.883,-17.578,-19.531,-10.742,-58.105,0
1671211474.958,-47.363,-16.113,-17.578,-13.184,21.484,0
1671211474.960,-62.500,-21.973,-24.414,-35.156,-10.254,0
1671211474.964,-25.391,-23.438,-24.902,-34.180,-95.215,0
1671211474.968,13.184,-19.531,-24.414,-19.043,65.918,0
1671211474.972,3.906,-16.113,-23.926,0.488,358.398,0
1671211474.976,-38.086,-9.277,-21.484,0.977,139.160,0
1671211474.980,-55.664,-7.812,-18.066,-21.973,-100.098,0
1671211474.984,-20.508,-10.742,-6.348,-19.043,33.203,0
1671211474.987,17.578,-18.066,-20.020,-5.371,276.855,0
1671211474.991,2.930,-18.555,-33.691,-12.695,156.250,0
1671211474.995,-45.410,-17.090,-29.297,-19.043,-17.090,0
1671211474.999,-75.684,-26.367,-35.645,-26.367,-19.043,0
1671211475.003,-52.246,-28.320,-39.062,-45.410,-69.336,0
1671211475.006,-1.465,-20.996,-35.645,-40.527,-65.430,0
1671211475.010,4.883,-22.461,-31.250,-24.414,-43.945,0
1671211475.014,-46.875,-22.949,-28.809,-18.066,-14.160,0
1671211475.018,-80.078,-17.578,-20.508,-25.879,-14.160,0
1671211475.022,-49.805,-17.090,-17.090,-42.969,-83.496,0
1671211475.026,-0.977,-16.602,-25.391,-42.969,19.043,0
1671211475.030,4.395,-18.066,-31.250,-25.391,236.328,0
1671211475.033,-45.410,-21.484,-29.785,-20.996,249.512,0
1671211475.037,-79.590,-21.973,-29.785,-47.363,-55.176,0
1671211475.041,-62.988,-23.438,-27.344,-68.848,-152.832,0
1671211475.045,-19.043,-23.438,-27.832,-55.176,8.301,0
1671211475.049,3.906,-16.602,-26.367,-37.598,-4.883,0
1671211475.050,-28.809,-16.602,-17.578,-36.133,-73.730,0
1671211475.054,-62.988,-19.043,-21.973,-38.086,-37.598,0
1671211475.058,-45.898,-15.137,-26.855,-48.340,0.977,0
1671211475.062,3.418,-14.160,-25.879,-53.223,-123.535,0
1671211475.066,32.715,-16.113,-17.090,-40.527,-189.941,0
1671211475.070,-1.465,-13.184,-10.742,-33.203,-35.156,0
1671211475.074,-47.852,-18.066,-21.484,-33.691,266.113,0
1671211475.077,-49.805,-18.066,-25.391,-48.340,122.070,0
1671211475.081,0.977,-9.277,-12.207,-47.852,-156.250,0
1671211475.085,28.320,-17.578,-9.277,-27.344,-91.797,0
1671211475.089,-10.742,-21.484,-13.672,-20.508,-10.742,0
1671211475.093,-56.641,-16.113,-4.395,-26.367,-100.586,0
1671211475.097,-58.105,-16.602,-4.883,-30.273,-147.461,0
1671211475.101,-9.766,-19.043,-17.090,-32.227,-142.578,0
1671211475.105,26.855,-17.578,-11.230,-25.391,-175.293,0
1671211475.109,12.207,-7.812,-8.301,-13.672,-116.699,0
1671211475.113,-35.645,-3.906,-13.672,-20.508,-77.637,0
1671211475.117,-54.688,-9.766,-19.531,-38.086,44.434,0
1671211475.121,-14.160,-10.742,-27.344,-46.387,43.457,0
1671211475.124,32.227,-8.301,-21.973,-34.668,-113.281,2
1671211475.128,11.230,-11.719,-13.672,-20.996,-122.070,0
1671211475.132,-44.922,-16.113,-16.602,-17.090,75.195,0
1671211475.136,-67.383,-13.672,-16.602,-30.273,0.000,0
1671211475.140,-31.250,-8.301,-7.812,-38.086,-185.059,0
1671211475.156,13.184,-9.766,-13.184,-33.203,-63.477,0
1671211475.160,2.930,-16.602,-18.555,-21.484,50.293,0
1671211475.164,-55.176,-20.996,-12.207,-25.391,-7.812,0
1671211475.168,-83.008,-22.461,-18.066,-44.922,-137.695,0
1671211475.172,-43.457,-22.949,-27.344,-50.781,-140.137,0
1671211475.176,2.930,-22.949,-22.461,-35.156,99.609,0
1671211475.180,-1.953,-24.414,-20.996,-30.273,81.543,0
1671211475.183,-41.992,-20.508,-25.879,-34.668,-83.984,0
1671211475.187,-61.523,-16.602,-26.367,-40.039,-48.828,0
1671211475.191,-33.203,-19.043,-21.973,-44.434,65.430,0
1671211475.195,13.184,-19.043,-14.648,-43.457,-137.207,0
1671211475.199,24.902,-14.648,-16.113,-32.227,-210.938,0
1671211475.200,-15.137,-17.578,-24.902,-23.926,-98.633,0
1671211475.204,-56.152,-17.578,-17.090,-29.297,-64.453,0
1671211475.208,-37.598,-15.137,-10.254,-42.480,-139.160,0
1671211475.212,9.277,-18.555,-16.602,-47.852,-175.781,0
1671211475.216,21.484,-18.555,-17.090,-32.227,-29.785,0
1671211475.220,-17.578,-19.043,-15.625,-26.367,30.762,0
1671211475.224,-67.383,-21.973,-16.113,-46.875,-119.141,0
1671211475.227,-53.223,-18.555,-11.230,-55.176,-258.789,0
1671211475.231,8.301,-15.137,-3.906,-32.715,-81.543,0
1671211475.235,19.043,-17.090,-13.184,-22.949,16.602,0
1671211475.239,-25.879,-14.160,-22.949,-27.832,-204.590,0
1671211475.243,-62.988,-12.207,-16.113,-28.809,-187.500,0
1671211475.245,-55.664,-12.207,-13.184,-38.086,-152.344,0
1671211475.249,-13.672,-12.207,-16.602,-34.668,-210.449,0
1671211475.253,11.719,-14.648,-12.695,-22.949,-86.914,0
1671211475.257,-20.996,-12.695,-9.277,-15.625,-3.418,0
1671211475.261,-71.289,-14.160,-18.555,-21.973,34.180,0
1671211475.265,-64.453,-13.672,-20.020,-33.203,-22.949,0
1671211475.269,-18.066,-14.160,-20.996,-41.504,-142.578,0
1671211475.272,6.836,-21.973,-26.367,-44.434,-98.633,0
1671211475.276,-17.578,-22.461,-23.926,-15.625,150.391,0
1671211475.280,-75.195,-18.555,-23.926,-25.879,43.457,0
1671211475.284,-80.566,-19.531,-18.066,-43.457,-199.219,0
1671211475.288,-30.762,-18.555,-11.719,-27.832,-224.121,0
1671211475.290,3.418,-16.113,-16.113,-12.695,-233.887,0
1671211475.294,-13.184,-19.043,-14.648,-7.812,-215.332,0
1671211475.298,-56.641,-22.461,-13.184,-9.277,-112.305,0
1671211475.302,-72.754,-19.531,-14.160,-17.578,-139.648,0
1671211475.306,-34.668,-22.949,-22.949,-25.391,-227.051,0
1671211475.310,14.648,-22.461,-34.180,-30.273,-119.141,0
1671211475.314,8.301,-18.555,-24.414,-20.996,-52.246,0
1671211475.317,-40.039,-18.066,-16.113,-10.742,60.059,0
1671211475.321,-66.406,-14.160,-24.414,-23.438,37.598,0
1671211475.325,-39.551,-17.090,-23.438,-42.480,-240.234,0
1671211475.329,11.719,-15.137,-17.578,-29.297,-244.141,0
1671211475.333,6.348,-16.113,-27.344,-14.160,-61.035,0
1671211475.335,-49.316,-19.043,-25.879,-21.973,-97.168,0
1671211475.339,-74.707,-18.066,-14.648,-34.668,-195.801,0
1671211475.343,-44.922,-21.973,-19.043,-41.504,-115.723,0
1671211475.347,1.465,-21.973,-28.809,-27.344,15.137,0
1671211475.351,0.000,-18.066,-25.391,-23.926,-112.305,0
1671211475.355,-51.270,-22.461,-22.949,-25.879,-145.020,0
1671211475.359,-88.867,-29.297,-25.391,-29.785,-23.438,0
1671211475.362,-65.430,-28.320,-23.438,-40.039,81.055,0
1671211475.366,-13.184,-23.438,-19.531,-42.480,-118.652,0
1671211475.370,-2.441,-27.344,-21.973,-36.621,-204.102,0
1671211475.374,-40.527,-23.926,-21.484,-33.691,-141.113,0
1671211475.378,-71.289,-18.066,-10.742,-32.227,-165.039,0
1671211475.382,-54.688,-16.602,-9.277,-35.156,-242.676,0
1671211475.386,-3.418,-13.672,-17.090,-39.551,-232.910,0
1671211475.390,16.113,-13.184,-16.113,-20.508,-59.570,0
1671211475.394,-27.344,-15.137,-18.555,-18.066,5.371,0
1671211475.398,-74.707,-16.602,-29.785,-25.391,-106.934,0
1671211475.402,-72.754,-21.484,-32.227,-30.762,-185.059,0
1671211475.406,-21.484,-24.902,-29.297,-30.273,16.113,0
1671211475.409,7.324,-22.461,-25.879,-12.695,94.727,0
1671211475.413,-28.320,-21.973,-25.879,-16.113,-149.414,0
1671211475.417,-75.195,-17.578,-29.297,-28.809,-189.453,0
1671211475.421,-77.637,-17.090,-28.809,-40.527,-174.316,0
1671211475.425,-27.832,-16.602,-23.438,-48.340,-202.148,0
1671211475.425,4.395,-18.555,-26.367,-35.156,-203.613,0
1671211475.429,-30.762,-21.973,-30.762,-24.902,-95.703,0
1671211475.433,-82.520,-23.438,-32.227,-35.645,25.391,0
1671211475.437,-84.961,-17.578,-34.668,-40.039,-68.848,0
1671211475.441,-37.598,-13.184,-25.879,-34.668,-221.680,0
1671211475.445,6.348,-18.066,-17.578,-21.973,-154.785,0
1671211475.449,-15.137,-18.555,-23.438,-1.465,197.266,0
1671211475.452,-69.336,-18.066,-23.438,-16.113,191.895,0
1671211475.456,-86.914,-18.555,-21.973,-44.434,-198.730,0
1671211475.460,-38.574,-19.531,-23.926,-36.133,-263.184,0
1671211475.464,16.602,-15.625,-25.879,-15.137,-226.074,0
1671211475.468,-6.836,-12.207,-21.484,-11.230,-222.656,0
1671211475.472,-73.730,-16.113,-19.043,-25.879,-189.453,0
1671211475.476,-93.262,-13.672,-20.508,-50.293,-185.547,0
1671211475.480,-58.105,-13.672,-17.090,-57.129,-217.285,0
1671211475.484,-19.531,-17.090,-17.090,-49.805,-274.902,0
1671211475.488,-19.043,-13.184,-16.602,-39.062,-197.754,0
1671211475.492,-64.941,-13.672,-17.578,-29.297,-4.883,0
1671211475.496,-90.820,-17.578,-16.602,-37.598,4.395,0
1671211475.499,-43.945,-14.648,-15.137,-46.387,-79.590,0
1671211475.503,4.883,-14.648,-22.461,-45.410,-197.266,0
1671211475.507,0.000,-17.578,-23.926,-30.273,-11.230,0
1671211475.511,-49.805,-20.996,-16.602,-24.414,104.980,0
1671211475.515,-90.332,-22.461,-14.648,-36.133,-172.852,0
1671211475.530,-62.988,-24.414,-27.832,-51.758,-225.586,0
1671211475.534,-4.395,-20.020,-35.645,-58.105,-135.742,0
1671211475.538,-0.977,-17.578,-24.902,-38.086,-23.438,0
1671211475.542,-58.105,-15.625,-19.531,-24.902,-35.645,0
1671211475.546,-97.168,-12.695,-21.973,-40.527,-77.637,0
1671211475.550,-65.430,-13.672,-23.438,-44.434,189.941,0
1671211475.554,-4.395,-11.230,-25.879,-33.203,106.934,0
1671211475.557,12.695,-10.254,-31.738,-25.879,-117.676,0
1671211475.561,-36.133,-12.207,-25.879,-15.137,-30.762,0
1671211475.565,-75.195,-6.348,-18.066,-6.836,162.598,0
1671211475.569,-68.359,-9.277,-18.555,-22.461,-15.137,0
1671211475.573,-24.414,-12.695,-27.344,-29.785,-181.152,0
1671211475.575,-0.977,-9.277,-28.320,-16.113,-100.098,0
1671211475.579,-45.410,-13.672,-26.855,-18.066,-71.289,0
1671211475.583,-94.238,-17.578,-20.508,-18.555,-128.906,0
1671211475.587,-87.891,-14.160,-16.113,-20.020,-169.434,0
1671211475.591,-28.320,-10.742,-17.090,-25.879,-65.430,0
1671211475.595,-7.324,-15.137,-20.996,-21.973,38.086,0
1671211475.599,-49.316,-20.020,-26.367,-20.020,43.945,0
1671211475.602,-91.309,-14.160,-26.855,-25.391,-5.371,0
1671211475.606,-82.520,-12.207,-22.461,-24.414,99.609,0
1671211475.610,-26.367,-4.395,-14.648,-23.926,100.098,0
1671211475.614,7.324,-0.488,-16.602,-27.832,-56.152,0
1671211475.618,-24.902,-10.254,-23.438,-21.484,52.246,0
1671211475.620,-84.961,-16.113,-25.391,-25.391,121.582,0
1671211475.624,-94.727,-16.602,-16.602,-35.645,-23.926,0
1671211475.628,-39.551,-16.602,-9.277,-35.645,-51.270,0
1671211475.632,4.395,-17.090,-12.207,-20.508,-18.066,0
1671211475.636,-24.902,-19.043,-17.578,-10.742,121.582,0
1671211475.640,-77.148,-24.414,-18.066,-27.832,69.824,0
1671211475.644,-91.797,-22.949,-22.949,-46.387,-26.855,0
1671211475.647,-49.805,-13.672,-23.438,-51.758,-22.949,0
1671211475.651,0.000,-13.672,-14.160,-37.109,124.023,0
1671211475.655,-21.973,-16.602,-18.066,-36.133,63.965,0
1671211475.659,-70.801,-14.648,-20.996,-40.527,-54.199,0
1671211475.663,-92.285,-15.625,-20.996,-44.922,-32.227,0
1671211475.666,-49.316,-11.719,-26.855,-42.969,-102.051,0
1671211475.670,0.977,-7.324,-22.949,-27.832,-120.605,0
1671211475.674,-10.742,-12.207,-19.531,-15.625,4.395,0
1671211475.678,-59.570,-12.207,-19.531,-10.254,76.660,0
1671211475.682,-86.426,-12.207,-23.926,-25.879,-19.531,0
1671211475.686,-58.594,-17.090,-32.227,-44.434,-37.598,0
1671211475.690,-0.488,-16.602,-27.344,-36.621,-9.766,0
1671211475.693,9.766,-13.672,-12.695,-17.578,136.719,0
1671211475.697,-49.805,-16.602,-19.043,-14.648,204.590,0
1671211475.701,-89.844,-15.625,-27.832,-25.391,-40.039,0
1671211475.705,-62.500,-23.926,-28.809,-35.645,-76.660,0
1671211475.709,-7.324,-27.344,-30.273,-29.785,8.789,0
1671211475.710,4.395,-17.578,-25.879,-12.207,9.277,0
1671211475.714,-44.922,-13.184,-23.926,-13.672,31.738,0
1671211475.718,-85.449,-13.672,-22.949,-22.461,185.059,0
1671211475.722,-62.988,-9.766,-19.531,-22.461,239.746,0
1671211475.726,-15.625,-8.301,-21.484,-24.902,48.828,0
1671211475.730,0.000,-10.742,-23.926,-20.996,39.062,0
1671211475.734,-44.434,-14.648,-23.926,-16.602,206.055,0
1671211475.737,-98.145,-13.184,-25.391,-19.531,405.273,0
1671211475.741,-87.891,-8.789,-27.344,-23.926,231.445,0
1671211475.745,-35.645,-9.766,-26.855,-27.344,-22.949,0
1671211475.749,-4.883,-12.695,-16.113,-20.020,39.062,0
1671211475.753,-35.156,-11.230,-12.207,-6.348,61.523,0
1671211475.756,-83.984,-11.719,-30.273,-18.066,5.371,0
1671211475.760,-90.820,-14.160,-28.320,-35.156,-11.230,0
1671211475.764,-41.992,-20.020,-24.902,-31.738,-13.672,0
1671211475.768,-7.812,-18.066,-29.297,-20.020,32.715,0
1671211475.772,-41.016,-18.555,-26.367,-14.160,66.895,0
1671211475.776,-91.309,-22.949,-23.438,-18.555,126.465,0
1671211475.780,-93.750,-20.020,-21.484,-26.367,312.988,0
1671211475.783,-34.668,-11.230,-17.090,-25.391,287.598,0
1671211475.787,12.207,-9.277,-16.113,-21.973,31.250,0
1671211475.791,-12.207,-14.648,-17.578,-11.719,5.859,0
1671211475.795,-57.129,-13.184,-20.996,-6.348,173.340,0
1671211475.799,-59.082,-12.207,-23.926,-27.832,75.684,0
1671211475.800,-10.742,-12.695,-23.438,-33.203,-40.527,0
1671211475.804,34.180,-9.277,-19.531,-14.648,41.992,0
1671211475.808,16.113,-14.160,-24.414,-7.324,206.543,0
1671211475.812,-43.945,-12.695,-29.785,-17.578,108.887,0
1671211475.816,-63.477,-11.719,-25.879,-27.832,-111.328,0
1671211475.820,-13.672,-17.090,-19.531,-27.344,25.391,0
1671211475.824,31.250,-20.508,-24.414,-8.789,470.703,0
1671211475.827,8.789,-16.602,-26.855,-1.953,355.469,0
1671211475.831,-42.480,-16.602,-20.508,-9.766,-11.230,0
1671211475.835,-70.801,-14.648,-16.602,-22.949,21.973,0
1671211475.839,-35.645,-10.742,-22.949,-30.273,45.898,0
1671211475.843,20.996,-8.789,-24.414,-13.672,-17.578,0
1671211475.848,16.113,-10.254,-24.414,-6.348,12.207,0
1671211475.852,-33.691,-14.160,-29.785,-16.113,115.723,0
1671211475.856,-65.918,-15.137,-22.461,-24.902,126.465,0
1671211475.860,-41.992,-17.090,-25.391,-35.156,0.977,0
1671211475.864,15.137,-17.090,-30.273,-25.391,-49.316,0
1671211475.868,23.926,-21.484,-23.438,-6.836,125.977,0
1671211475.872,-29.785,-20.996,-26.855,-9.277,200.684,0
1671211475.875,-66.895,-14.648,-27.344,-9.766,34.180,0
1671211475.879,-39.062,-13.672,-18.555,-14.160,-60.547,0
1671211475.883,15.137,-19.531,-25.391,-7.324,149.414,0
1671211475.887,13.184,-19.043,-20.020,2.441,183.105,0
1671211475.891,-40.527,-18.555,-17.090,-3.906,2.441,0
1671211475.906,-82.031,-23.438,-26.367,-11.230,-5.371,0
1671211475.910,-76.172,-20.020,-24.414,-22.461,27.832,0
1671211475.914,-28.320,-14.648,-22.461,-25.391,72.266,0
1671211475.918,-2.930,-20.508,-22.461,-13.672,40.527,0
1671211475.922,-36.621,-16.113,-26.367,-8.789,47.852,0
1671211475.926,-83.496,-12.695,-30.273,-5.371,422.363,0
1671211475.930,-85.449,-15.625,-25.879,-20.020,459.961,0
1671211475.933,-29.785,-16.602,-25.879,-34.180,51.270,0
1671211475.937,0.000,-21.484,-32.227,-27.344,-0.488,0
1671211475.941,-33.691,-18.066,-28.809,-15.625,105.469,0
1671211475.945,-79.590,-17.578,-19.531,-8.789,37.598,0
1671211475.949,-85.449,-20.508,-19.531,-21.973,-28.809,0
1671211475.950,-39.062,-21.973,-25.391,-31.738,-17.090,0
1671211475.954,-9.277,-24.414,-20.996,-24.414,21.484,0
1671211475.958,-38.086,-16.113,-25.391,-28.320,37.109,0
1671211475.962,-80.078,-16.113,-31.250,-35.156,41.992,0
1671211475.966,-85.938,-21.973,-24.414,-32.227,126.465,0
1671211475.970,-49.316,-24.414,-25.391,-35.645,138.184,0
1671211475.974,-7.812,-22.461,-27.832,-23.926,120.117,0
1671211475.977,-20.996,-17.090,-22.949,-13.184,173.828,0
1671211475.981,-65.918,-19.043,-20.508,-15.625,336.426,0
1671211475.985,-83.984,-22.461,-25.391,-22.949,439.941,0
1671211475.989,-44.922,-20.020,-25.391,-30.762,109.863,0
1671211475.993,11.230,-14.648,-23.438,-23.438,39.062,0
1671211475.995,0.977,-17.090,-28.320,-25.879,104.004,0
1671211475.999,-61.035,-21.973,-28.809,-35.156,56.152,0
1671211476.003,-90.820,-20.508,-23.926,-44.434,80.078,0
1671211476.007,-52.246,-14.160,-15.137,-42.969,82.520,0
1671211476.011,-7.324,-18.555,-13.672,-31.250,179.199,0
1671211476.015,-20.020,-21.973,-30.762,-40.039,89.355,0
1671211476.019,-74.219,-20.996,-35.645,-51.270,-31.250,0
1671211476.022,-94.238,-23.926,-26.367,-46.875,-14.160,0
1671211476.026,-61.523,-24.902,-31.738,-34.668,281.738,0
1671211476.030,-19.531,-19.531,-26.855,-40.039,186.523,0
1671211476.034,-7.324,-17.578,-15.625,-42.969,-18.555,2
1671211476.038,-49.805,-19.531,-24.902,-35.156,52.246,0
1671211476.040,-90.820,-20.020,-24.414,-37.109,15.625,0
1671211476.044,-69.336,-22.949,-18.555,-39.062,-114.258,0
1671211476.048,-13.184,-19.531,-28.320,-37.598,-114.258,0
1671211476.052,0.977,-18.066,-33.203,-26.367,17.090,0
1671211476.056,-51.270,-20.508,-26.367,-21.484,58.594,0
1671211476.060,-97.656,-22.461,-19.043,-33.691,66.895,0
1671211476.064,-80.078,-24.414,-19.531,-43.945,70.312,0
1671211476.067,-24.414,-22.461,-22.949,-32.227,183.594,0
1671211476.071,-12.695,-21.484,-26.855,-20.508,268.066,0
1671211476.075,-60.059,-19.531,-26.855,-24.414,75.684,0
1671211476.079,-103.516,-20.020,-21.484,-20.996,30.762,0
1671211476.083,-90.332,-24.902,-20.508,-19.531,174.805,0
1671211476.085,-42.969,-25.879,-27.832,-32.227,70.801,0
1671211476.089,-9.766,-27.832,-33.203,-20.996,33.203,0
1671211476.093,-38.574,-28.320,-32.227,-8.789,179.688,0
1671211476.097,-89.844,-25.391,-28.320,-16.113,319.336,0
1671211476.101,-88.867,-21.973,-19.043,-29.785,167.969,0
1671211476.105,-39.062,-20.020,-19.043,-39.062,49.316,0
1671211476.109,-5.859,-21.484,-29.297,-36.133,204.590,0
1671211476.112,-27.344,-23.926,-33.203,-21.484,363.281,0
1671211476.116,-72.754,-22.461,-29.297,-28.320,182.129,0
1671211476.120,-74.707,-18.555,-23.438,-39.551,20.020,0
1671211476.124,-29.785,-18.066,-18.555,-37.109,37.109,0
1671211476.128,1.465,-19.531,-19.043,-32.227,-5.859,0
1671211476.133,-19.043,-20.996,-24.414,-25.879,-23.926,0
1671211476.137,-67.871,-19.531,-29.785,-32.227,0.977,0
1671211476.141,-76.172,-17.090,-30.273,-39.062,136.719,0
1671211476.145,-38.574,-18.066,-33.691,-43.457,87.891,0
1671211476.149,-4.883,-20.508,-31.738,-42.480,24.414,0
1671211476.153,-14.160,-20.020,-30.273,-35.645,119.629,0
1671211476.157,-61.035,-20.996,-35.645,-31.738,260.254,0
1671211476.160,-83.984,-20.996,-33.203,-34.668,235.840,0
1671211476.164,-46.875,-20.020,-29.785,-40.039,-53.711,0
1671211476.168,2.930,-20.996,-28.809,-31.738,-105.957,0
1671211476.172,-6.348,-19.043,-26.367,-19.043,16.602,0
1671211476.176,-53.711,-17.578,-24.902,-12.695,51.270,0
1671211476.175,-77.637,-21.973,-31.250,-19.531,-9.277,0
1671211476.179,-56.641,-23.926,-32.715,-31.250,-41.992,0
1671211476.183,-9.766,-23.926,-31.738,-17.090,34.668,0
1671211476.187,-9.766,-22.461,-28.809,-6.836,51.758,0
1671211476.191,-58.594,-22.461,-29.297,-16.602,102.051,0
1671211476.195,-85.449,-21.484,-27.832,-26.855,121.094,0
1671211476.199,-55.176,-18.555,-19.043,-21.484,372.559,0
1671211476.202,-2.441,-16.113,-20.996,-26.367,436.035,0
1671211476.206,5.371,-12.207,-26.367,-37.598,75.684,0
1671211476.210,-38.574,-16.113,-25.879,-39.551,-27.832,0
1671211476.214,-67.871,-14.648,-21.973,-42.969,-26.855,0
1671211476.218,-50.293,-14.160,-16.602,-58.105,-101.074,0
1671211476.222,-4.883,-19.043,-14.648,-59.082,-145.020,0
1671211476.226,9.277,-22.461,-19.531,-39.062,-76.172,0
1671211476.230,-30.273,-27.344,-23.926,-33.691,-40.039,0
1671211476.234,-68.848,-23.438,-23.926,-47.363,-111.328,0
1671211476.238,-54.199,-20.020,-17.090,-49.805,-160.156,0
1671211476.242,-7.812,-23.438,-7.812,-48.340,-41.016,0
1671211476.246,10.254,-21.484,-15.137,-50.781,39.062,0
1671211476.249,-20.020,-15.137,-25.391,-46.387,-93.750,0
1671211476.253,-62.012,-13.184,-21.484,-58.105,-227.539,0
1671211476.257,-56.641,-18.555,-22.461,-60.547,-64.453,0
1671211476.261,-10.254,-14.648,-19.043,-59.082,36.621,0
1671211476.265,10.254,-14.160,-19.531,-71.289,-264.160,0
1671211476.280,-25.879,-17.090,-19.531,-63.477,-337.891,0
1671211476.284,-68.359,-23.438,-16.602,-60.059,-277.344,0
1671211476.288,-63.965,-21.484,-23.438,-73.730,-306.152,0
1671211476.292,-22.949,-15.137,-20.508,-75.684,-427.246,0
1671211476.296,12.695,-17.090,-14.160,-49.805,-413.086,0
1671211476.300,-0.977,-17.090,-16.602,-30.273,-102.051,0
1671211476.304,-53.223,-17.090,-20.020,-46.387,-136.230,0
1671211476.307,-66.895,-15.625,-21.484,-65.430,-399.902,0
1671211476.311,-22.461,-19.531,-15.137,-68.359,-429.199,0
1671211476.315,12.695,-20.996,-17.578,-53.711,-294.434,0
1671211476.319,-4.395,-15.625,-28.320,-42.969,-325.684,0
1671211476.323,-47.363,-9.766,-20.508,-47.852,-437.988,0
1671211476.325,-60.059,-7.324,-18.066,-60.547,-468.750,0
1671211476.329,-28.320,-20.508,-25.879,-67.383,-469.238,0
1671211476.333,13.672,-24.902,-24.902,-58.105,-553.223,0
1671211476.337,0.488,-18.066,-26.855,-49.805,-484.375,0
1671211476.341,-50.781,-17.578,-27.832,-52.246,-354.492,0
1671211476.345,-66.895,-21.484,-30.273,-61.523,-416.016,0
1671211476.349,-35.645,-17.578,-27.344,-71.777,-484.375,0
1671211476.352,4.395,-6.836,-18.066,-61.523,-497.559,0
1671211476.356,0.977,-8.301,-14.648,-38.086,-297.852,0
1671211476.360,-49.316,-15.625,-22.461,-43.457,-210.449,0
1671211476.364,-72.754,-13.672,-33.203,-59.570,-430.664,0
1671211476.368,-38.086,-11.230,-31.250,-57.617,-441.895,0
1671211476.371,6.348,-13.672,-20.996,-51.758,-348.145,0
1671211476.375,17.578,-13.184,-20.996,-31.250,-266.113,0
1671211476.379,-17.090,-10.254,-18.555,-20.508,-257.812,0
1671211476.383,-57.617,-10.742,-6.348,-35.645,-226.562,0
1671211476.387,-50.781,-14.648,-15.137,-56.152,-31.738,0
1671211476.391,-1.465,-19.043,-16.602,-53.223,-101.562,0
1671211476.395,12.207,-21.973,-12.207,-43.945,-229.004,0
1671211476.398,-35.156,-22.949,-18.555,-41.992,-146.484,0
1671211476.402,-70.312,-19.531,-19.043,-39.551,58.105,0
1671211476.406,-49.805,-12.207,-21.484,-47.363,-139.160,0
1671211476.410,-5.371,-10.742,-23.438,-42.969,-337.402,0
1671211476.414,0.488,-14.160,-24.414,-33.691,-206.055,0
1671211476.415,-31.738,-18.066,-26.855,-27.344,-159.668,0
1671211476.419,-67.871,-18.066,-20.996,-33.203,-206.543,0
1671211476.423,-59.082,-17.090,-17.090,-44.434,-242.676,0
1671211476.427,-0.977,-19.043,-16.113,-37.598,-172.852,0
1671211476.431,28.320,-18.555,-9.766,-24.902,-76.172,0
1671211476.435,-10.254,-17.578,-7.324,-20.508,24.902,0
1671211476.439,-63.965,-19.531,-17.578,-35.645,36.621,0
1671211476.442,-58.105,-16.113,-20.996,-41.016,115.723,0
1671211476.446,-4.395,-13.672,-19.043,-26.367,244.629,0
1671211476.450,18.066,-14.160,-24.902,-30.762,-54.199,0
1671211476.454,-10.742,-18.066,-26.855,-32.227,-188.965,0
1671211476.458,-52.734,-17.578,-27.344,-31.250,-87.402,0
1671211476.460,-57.617,-18.555,-29.297,-46.875,-166.016,0
1671211476.464,-6.836,-19.043,-27.832,-54.688,-212.891,0
1671211476.468,31.250,-16.113,-23.926,-43.457,-56.152,0
1671211476.472,2.441,-15.625,-20.020,-23.438,89.844,0
1671211476.476,-45.410,-18.066,-20.020,-22.949,-43.457,0
1671211476.480,-64.941,-22.949,-21.973,-38.574,-156.250,0
1671211476.484,-18.555,-22.949,-18.066,-48.828,-92.773,0
1671211476.487,23.926,-24.414,-22.949,-36.133,286.133,0
1671211476.491,-3.906,-17.090,-27.344,-26.855,227.051,0
1671211476.495,-54.688,-11.230,-31.250,-39.551,-106.934,0
1671211476.499,-73.242,-21.484,-35.156,-52.734,-131.348,0
1671211476.503,-26.855,-21.484,-31.738,-60.547,-100.586,0
1671211476.505,25.391,-18.555,-32.715,-52.246,-158.203,0
1671211476.509,23.926,-16.113,-29.785,-32.715,-133.789,0
1671211476.513,-16.113,-11.230,-23.926,-24.414,-65.918,0
1671211476.517,-38.574,-11.230,-23.926,-40.039,-97.656,0
1671211476.521,-10.742,-10.254,-26.855,-50.781,-140.137,0
1671211476.525,33.203,-13.184,-29.785,-41.016,-122.559,0
1671211476.529,28.320,-15.137,-34.668,-27.344,119.629,0
1671211476.532,-28.809,-11.230,-39.551,-29.785,195.801,0
1671211476.536,-64.453,-14.648,-35.156,-57.617,-68.848,0
1671211476.540,-28.809,-15.625,-31.738,-60.059,-150.391,0
1671211476.544,20.020,-17.090,-33.691,-51.758,-34.180,0
1671211476.548,24.902,-19.043,-27.344,-41.992,-18.066,0
1671211476.550,-13.184,-18.066,-27.344,-38.574,-87.402,0
1671211476.554,-49.316,-21.484,-31.738,-52.246,-112.305,0
1671211476.558,-31.250,-24.902,-20.996,-45.898,173.340,0
1671211476.562,2.441,-20.508,-20.508,-47.363,48.828,0
1671211476.566,15.137,-15.137,-22.949,-50.781,-224.609,0
1671211476.570,-13.184,-13.672,-22.949,-38.086,-22.949,0
1671211476.574,-47.363,-13.672,-30.762,-36.133,242.188,0
1671211476.577,-30.762,-9.766,-26.855,-47.852,41.016,0
1671211476.581,16.113,-10.254,-19.531,-45.898,-164.551,0
1671211476.585,34.180,-14.160,-18.555,-30.762,-104.004,0
1671211476.589,-5.371,-16.602,-23.926,-25.391,-46.875,0
1671211476.593,-49.316,-20.020,-23.926,-34.180,-135.742,0
1671211476.598,-51.758,-22.949,-18.066,-50.781,-146.484,0
1671211476.602,-4.883,-17.578,-23.438,-50.293,-48.340,0
1671211476.606,32.227,-12.207,-29.785,-37.598,-33.691,0
1671211476.610,1.465,-8.301,-25.879,-35.645,-73.242,0
1671211476.614,-53.223,-11.230,-24.902,-40.527,-113.281,0
1671211476.618,-47.852,-16.602,-25.879,-44.922,9.766,0
1671211476.622,-0.977,-15.625,-24.902,-46.387,62.988,0
1671211476.625,31.738,-19.043,-21.973,-24.902,-85.449,0
1671211476.629,11.719,-20.020,-13.672,-5.859,-108.887,0
1671211476.633,-45.898,-17.578,-10.254,-21.973,67.871,0
1671211476.637,-66.895,-17.090,-26.855,-57.617,83.496,0
1671211476.641,-17.578,-8.789,-35.156,-63.477,-117.676,0
1671211476.655,21.973,-3.906,-32.715,-41.504,-123.047,0
1671211476.659,-2.930,-6.836,-31.250,-30.762,-16.602,0
1671211476.663,-51.758,-10.742,-27.832,-36.133,62.988,0
1671211476.667,-75.684,-12.207,-29.785,-50.293,-13.184,0
1671211476.671,-38.086,-14.160,-33.203,-56.152,-35.156,0
1671211476.675,19.531,-17.578,-26.367,-28.809,280.273,0
1671211476.679,14.160,-13.672,-19.043,-7.324,437.500,0
1671211476.682,-34.668,-9.766,-20.996,-30.273,62.012,0
1671211476.686,-59.570,-14.160,-22.949,-49.805,-163.086,0
1671211476.690,-24.414,-12.207,-21.973,-44.922,-110.352,0
1671211476.694,20.996,-9.766,-22.461,-36.133,-131.836,0
1671211476.698,14.160,-15.625,-15.625,-23.926,-149.414,0
1671211476.700,-38.574,-20.020,-20.508,-19.043,-32.715,0
1671211476.704,-74.219,-15.625,-29.297,-24.414,22.949,0
1671211476.708,-43.945,-12.695,-27.344,-27.832,-31.250,0
1671211476.712,3.418,-9.766,-21.484,-18.066,3.418,0
1671211476.716,6.348,-9.766,-18.066,-7.324,59.082,0
1671211476.720,-39.551,-17.090,-26.367,-18.555,85.449,0
1671211476.724,-72.266,-23.438,-27.832,-35.156,37.598,0
1671211476.727,-37.109,-20.508,-22.949,-42.480,-57.129,0
1671211476.731,18.066,-14.160,-24.414,-27.832,91.309,0
1671211476.735,16.602,-19.043,-23.926,-9.277,282.715,0
1671211476.739,-29.297,-22.949,-19.531,-22.949,68.359,0
1671211476.743,-60.059,-18.555,-24.902,-37.109,-4.395,0
1671211476.745,-50.781,-17.578,-34.668,-45.898,5.371,0
1671211476.749,-3.418,-13.672,-27.832,-40.527,-65.430,0
1671211476.753,15.625,-11.719,-18.555,-30.762,-46.387,0
1671211476.757,-25.879,-8.789,-15.137,-23.926,17.578,0
1671211476.761,-69.336,-11.230,-20.020,-29.785,163.574,0
1671211476.765,-64.941,-18.066,-27.832,-47.363,104.980,0
1671211476.769,-20.996,-21.484,-33.203,-51.270,-60.547,0
1671211476.772,7.324,-19.531,-31.738,-36.621,-54.688,0
1671211476.776,-15.625,-18.066,-29.785,-22.461,192.871,0
1671211476.780,-67.871,-21.973,-34.180,-33.691,106.445,0
1671211476.784,-73.242,-22.461,-33.691,-52.246,-59.082,0
1671211476.788,-18.066,-17.578,-24.414,-42.969,-83.496,0
1671211476.790,12.207,-18.555,-20.020,-26.855,-6.836,0
1671211476.794,-16.602,-13.672,-25.879,-16.602,10.254,0
1671211476.798,-64.941,-10.742,-22.949,-22.949,-91.797,0
1671211476.802,-66.895,-20.508,-22.949,-41.504,-122.070,0
1671211476.806,-18.555,-21.973,-28.320,-49.805,-103.027,0
1671211476.810,16.113,-20.020,-25.391,-37.598,-65.918,0
1671211476.814,-8.301,-20.996,-21.484,-23.926,32.715,0
1671211476.817,-61.035,-20.508,-19.043,-13.184,199.707,0
1671211476.821,-67.871,-15.625,-17.090,-21.973,136.230,0
1671211476.825,-29.297,-16.113,-18.555,-40.527,-113.770,0
1671211476.829,5.371,-19.043,-21.973,-37.598,-79.102,0
1671211476.833,-6.836,-13.184,-14.160,-20.508,-24.414,0
1671211476.836,-61.035,-15.137,-20.996,-21.484,-0.488,0
1671211476.840,-84.961,-18.066,-33.203,-36.133,88.867,0
1671211476.844,-41.992,-18.066,-27.832,-39.062,84.961,0
1671211476.848,12.695,-15.625,-19.043,-18.555,163.086,0
1671211476.852,2.441,-15.625,-23.438,-9.277,107.910,0
1671211476.856,-54.688,-18.555,-31.738,-23.926,10.742,0
1671211476.860,-76.172,-20.020,-25.391,-28.320,89.844,0
1671211476.863,-36.621,-28.320,-23.438,-24.414,236.328,0
1671211476.867,-0.488,-28.809,-31.250,-30.762,55.664,0
1671211476.871,-5.371,-25.879,-30.762,-25.391,-74.219,0
1671211476.875,-47.363,-20.508,-28.809,-17.578,23.926,0
1671211476.879,-81.543,-15.137,-22.949,-24.414,-24.414,0
1671211476.881,-55.176,-16.113,-14.648,-33.203,-150.391,0
1671211476.885,3.418,-18.555,-22.461,-30.762,-139.160,2
1671211476.889,13.184,-20.508,-26.855,-22.461,-1.953,0
1671211476.893,-29.297,-22.461,-17.578,-23.438,40.039,0
1671211476.897,-64.453,-22.461,-19.531,-26.367,-7.324,0
1671211476.901,-47.852,-24.902,-21.973,-33.203,-37.109,0
1671211476.905,3.906,-26.367,-17.090,-34.668,162.598,0
1671211476.908,23.438,-26.367,-23.438,-15.137,356.445,0
1671211476.912,-17.578,-23.926,-27.832,-21.973,67.871,0
1671211476.916,-53.711,-20.996,-20.020,-34.180,-147.461,0
1671211476.920,-45.898,-20.508,-21.973,-32.227,-108.887,0
1671211476.924,3.418,-16.602,-21.973,-25.879,-125.488,0
1671211476.925,31.250,-8.301,-20.020,-12.207,-129.883,0
1671211476.929,-7.812,-8.789,-21.973,0.000,-43.945,0
1671211476.933,-60.547,-20.508,-17.090,-14.648,85.938,0
1671211476.937,-45.898,-17.090,-6.348,-32.715,-3.418,0
1671211476.941,2.441,-14.160,-17.090,-36.133,-141.602,0
1671211476.945,19.043,-20.020,-33.691,-30.762,19.043,0
1671211476.949,-10.742,-20.996,-30.273,-9.766,405.273,0
1671211476.952,-62.012,-17.090,-27.832,-16.113,329.590,0
1671211476.956,-73.242,-16.602,-26.367,-35.645,-78.613,0
1671211476.960,-25.879,-20.020,-22.461,-33.203,-95.215,0
1671211476.964,15.137,-13.184,-14.160,-24.902,44.434,0
1671211476.968,-9.277,-12.207,-11.230,-20.508,-20.020,0
1671211476.972,-60.059,-15.625,-18.555,-19.043,-116.211,0
1671211476.976,-72.266,-17.090,-25.879,-31.250,-85.449,0
1671211476.980,-36.133,-22.461,-25.879,-38.086,-101.074,0
1671211476.984,0.488,-19.043,-19.531,-30.273,-112.305,0
1671211476.988,-17.090,-20.020,-17.578,-26.367,-55.176,0
1671211476.992,-63.965,-25.391,-19.531,-21.484,100.586,0
1671211476.996,-81.543,-25.391,-25.391,-32.227,162.109,0
1671211476.999,-49.805,-26.855,-32.227,-49.805,20.996,0
1671211477.003,-4.883,-30.273,-27.344,-35.645,-75.195,0
1671211477.007,-8.789,-29.297,-21.973,-8.789,149.902,0
1671211477.011,-53.223,-19.531,-18.066,-13.184,207.031,0
1671211477.015,-74.707,-25.391,-15.137,-40.527,-138.184,0
1671211477.030,-44.922,-38.086,-18.066,-43.457,-172.852,0
1671211477.034,4.883,-29.297,-21.973,-15.137,-88.867,0
1671211477.038,6.836,-22.461,-19.531,-9.277,-79.590,0
1671211477.042,-41.992,-23.438,-9.277,-22.949,-91.309,0
1671211477.046,-74.707,-29.297,-12.207,-24.902,-58.594,0
1671211477.050,-43.457,-31.250,-17.578,-15.137,214.844,0
1671211477.054,11.719,-23.438,-15.625,-16.113,158.203,0
1671211477.057,9.766,-23.438,-23.926,-22.949,-67.871,0
1671211477.061,-35.645,-26.855,-29.297,-18.555,-73.242,0
1671211477.065,-63.477,-29.785,-24.902,-21.484,47.363,0
1671211477.069,-46.387,-30.273,-22.949,-31.250,-45.898,0
1671211477.073,0.977,-22.461,-25.391,-31.250,-168.457,0
1671211477.075,19.531,-14.648,-14.160,-21.973,-35.645,0
1671211477.079,-28.320,-20.508,-14.648,-19.531,74.707,0
1671211477.083,-78.125,-20.996,-21.484,-31.738,-31.250,0
1671211477.087,-60.059,-15.625,-20.020,-49.805,-95.703,0
1671211477.091,-13.184,-20.508,-19.531,-46.875,-18.555,0
1671211477.095,-0.488,-20.996,-18.555,-33.203,64.453,0
1671211477.099,-36.133,-14.648,-12.695,-24.414,35.645,0
1671211477.102,-77.148,-13.184,-12.207,-30.762,-13.184,0
1671211477.106,-70.312,-15.625,-13.672,-30.273,132.812,0
1671211477.110,-24.902,-16.602,-15.625,-19.043,159.180,0
1671211477.114,-1.465,-18.555,-23.926,-25.391,-35.156,0
1671211477.118,-32.715,-23.438,-27.832,-20.996,-70.312,0
1671211477.120,-71.289,-20.996,-24.414,-15.625,-48.828,0
1671211477.124,-63.965,-19.043,-19.531,-33.203,-56.641,0
1671211477.128,-14.648,-20.508,-15.625,-34.180,-34.180,0
1671211477.132,13.672,-19.531,-12.207,-18.066,-26.367,0
1671211477.136,-17.090,-20.996,-23.438,-7.812,291.992,0
1671211477.140,-66.406,-21.484,-36.133,-18.555,325.195,0
1671211477.144,-70.801,-22.949,-34.180,-41.016,-39.551,0
1671211477.147,-26.367,-27.344,-31.250,-44.434,-70.312,0
1671211477.151,5.859,-23.438,-27.832,-33.691,222.656,0
1671211477.155,-16.113,-10.742,-19.531,-32.227,129.395,0
1671211477.159,-62.988,-15.625,-23.926,-37.598,-71.289,0
1671211477.163,-75.195,-24.902,-26.855,-41.504,-44.434,0
1671211477.165,-28.320,-21.973,-22.461,-36.133,-44.434,0
1671211477.169,8.789,-14.648,-17.578,-25.391,-79.102,0
1671211477.173,-7.812,-10.742,-22.461,-27.344,-59.082,0
1671211477.177,-56.641,-13.672,-24.414,-27.344,-38.086,0
1671211477.181,-75.195,-10.742,-20.996,-37.109,-41.992,0
1671211477.185,-41.504,-10.254,-24.902,-42.480,-11.719,0
1671211477.189,0.977,-15.625,-21.484,-31.738,-22.949,0
1671211477.192,-3.906,-13.184,-17.578,-13.184,222.656,0
1671211477.196,-50.293,-12.695,-18.066,-1.465,365.723,0
1671211477.200,-73.730,-10.254,-14.160,-19.043,-7.812,0
1671211477.204,-40.039,-13.184,-16.113,-28.320,-144.043,0
1671211477.208,-7.324,-16.113,-20.508,-33.203,-35.156,0
1671211477.210,-10.254,-17.090,-26.855,-31.250,-43.945,0
1671211477.214,-51.270,-24.414,-27.344,-27.344,-62.500,0
1671211477.218,-82.520,-22.949,-21.484,-33.203,25.391,0
1671211477.222,-43.945,-12.695,-16.113,-27.344,129.883,0
1671211477.226,6.348,-10.742,-10.254,-20.020,10.742,0
1671211477.230,5.859,-14.648,-10.742,-20.996,-55.664,0
1671211477.234,-41.992,-17.090,-15.625,-24.414,121.094,0
1671211477.237,-73.242,-17.578,-19.531,-16.113,263.672,0
1671211477.241,-50.781,-14.648,-23.438,-27.344,62.012,0
1671211477.245,-2.930,-18.066,-25.391,-34.180,-74.219,0
1671211477.249,7.812,-20.020,-22.949,-23.926,7.324,0
1671211477.253,-31.738,-20.020,-20.508,-14.648,51.270,0
1671211477.255,-63.965,-15.625,-16.113,-16.602,-73.730,0
1671211477.259,-54.199,-18.066,-22.461,-33.203,-168.457,0
1671211477.263,-3.418,-24.902,-25.391,-39.551,-67.383,0
1671211477.267,20.020,-23.438,-23.926,-25.391,2.441,0
1671211477.271,-20.020,-18.066,-23.926,-19.531,0.977,0
1671211477.275,-62.988,-20.996,-20.020,-26.855,29.785,0
1671211477.279,-52.246,-23.926,-12.207,-27.344,218.262,0
1671211477.282,-9.766,-13.184,-11.719,-22.461,235.352,0
1671211477.286,11.230,-13.672,-10.742,-21.484,-2.930,0
1671211477.290,-16.602,-20.996,-13.184,-22.949,-14.648,0
1671211477.294,-60.547,-19.043,-17.090,-22.461,24.902,0
1671211477.298,-53.223,-17.090,-18.555,-31.738,-36.621,0
1671211477.301,-13.672,-18.555,-21.484,-41.504,-29.297,0
1671211477.305,19.531,-13.672,-20.020,-27.344,18.066,0
1671211477.309,-1.953,-17.578,-19.531,-8.301,227.539,0
1671211477.313,-56.641,-20.996,-16.602,-18.555,144.043,0
1671211477.317,-65.430,-18.555,-14.648,-35.156,-91.797,0
1671211477.321,-17.090,-19.531,-17.578,-22.461,-10.742,0
1671211477.325,25.391,-21.484,-16.113,-4.395,256.836,0
1671211477.328,3.418,-22.949,-20.020,-7.324,112.793,0
1671211477.332,-50.293,-23.926,-22.461,-16.602,-123.047,0
1671211477.336,-71.777,-28.809,-24.414,-30.273,-106.445,0
1671211477.340,-37.109,-23.926,-20.020,-37.598,-14.648,0
1671211477.344,7.324,-19.531,-15.625,-31.250,-89.355,0
1671211477.347,4.883,-24.414,-17.578,-17.090,-128.906,0
1671211477.351,-46.387,-28.809,-20.996,-20.996,-13.672,0
1671211477.355,-64.941,-28.320,-20.020,-30.273,-38.574,0
1671211477.359,-27.832,-19.043,-14.160,-31.738,-60.547,0
1671211477.363,14.648,-10.742,-15.625,-30.273,-62.988,0
1671211477.367,20.020,-12.207,-20.508,-9.277,75.195,0
1671211477.371,-29.297,-18.066,-21.973,0.000,279.297,0
1671211477.374,-65.430,-19.531,-25.879,-24.414,83.496,0
1671211477.378,-39.062,-18.555,-26.367,-44.434,-89.355,0
1671211477.382,10.742,-17.578,-27.832,-30.762,107.422,0
1671211477.386,10.742,-18.066,-24.414,-16.113,168.457,0
1671211477.390,-36.621,-11.230,-17.090,-17.090,30.762,0
1671211477.406,-70.312,-16.113,-25.391,-31.250,-44.922,0
1671211477.410,-49.316,-23.926,-27.832,-42.969,-40.527,0
1671211477.414,9.277,-15.625,-23.926,-35.645,-21.973,0
1671211477.418,18.066,-12.695,-24.414,-28.320,-74.219,0
1671211477.422,-27.344,-20.020,-19.043,-16.602,-12.695,0
1671211477.426,-65.918,-23.438,-19.043,-9.277,345.703,0
1671211477.430,-57.129,-23.438,-23.926,-34.180,283.691,0
1671211477.433,-2.930,-15.137,-14.648,-42.969,-26.855,0
1671211477.437,24.902,-12.207,-19.531,-25.391,-20.996,0
1671211477.441,-8.789,-17.578,-34.668,-10.742,209.473,0
1671211477.445,-56.641,-12.207,-25.391,-32.227,95.703,0
1671211477.449,-56.152,-13.672,-25.391,-56.152,-148.926,0
1671211477.450,-7.324,-18.555,-30.273,-43.945,-97.168,0
1671211477.454,12.207,-19.531,-22.461,-24.414,-23.438,0
1671211477.458,-23.926,-20.020,-20.020,-26.855,-40.527,0
1671211477.462,-73.242,-20.508,-22.949,-31.250,-1.465,0
1671211477.466,-75.684,-21.484,-20.508,-32.715,32.227,0
1671211477.470,-29.297,-17.578,-19.043,-39.062,61.035,0
1671211477.474,-0.488,-18.555,-18.066,-36.133,125.977,0
1671211477.477,-29.297,-19.531,-20.508,-28.809,84.961,0
1671211477.481,-65.918,-20.508,-25.391,-23.438,157.227,0
1671211477.485,-67.871,-19.043,-26.855,-31.738,254.883,0
1671211477.489,-33.691,-19.043,-31.738,-44.434,-11.719,0
1671211477.493,5.371,-19.043,-31.738,-30.762,-135.742,0
1671211477.495,-9.277,-20.508,-29.785,-5.371,84.473,0
1671211477.499,-57.617,-20.996,-27.832,-14.648,26.367,0
1671211477.503,-69.336,-19.043,-24.902,-30.762,-154.785,0
1671211477.507,-27.344,-12.695,-12.695,-25.879,-87.402,0
1671211477.511,1.465,-13.672,-17.578,-20.996,62.500,0
1671211477.515,-21.973,-19.531,-30.762,-33.691,104.492,0
1671211477.519,-66.406,-20.020,-31.738,-37.109,41.504,0
1671211477.522,-86.426,-20.020,-25.391,-35.645,-98.145,0
1671211477.526,-46.875,-21.973,-19.043,-31.250,9.277,0
1671211477.530,2.930,-19.043,-18.555,-25.391,-7.324,0
1671211477.534,1.465,-13.184,-22.461,-20.020,-119.629,0
1671211477.538,-42.480,-19.531,-25.391,-20.996,-32.715,0
1671211477.540,-70.801,-20.996,-18.555,-31.250,59.082,0
1671211477.544,-44.922,-18.066,-15.137,-37.598,-31.250,0
1671211477.548,0.000,-24.902,-13.184,-30.762,-113.281,0
1671211477.552,4.395,-23.926,-20.020,-16.602,44.922,0
1671211477.556,-47.363,-19.043,-28.809,-19.531,163.086,0
1671211477.560,-81.543,-25.391,-27.832,-30.762,111.328,0
1671211477.564,-53.711,-29.297,-32.227,-40.527,40.527,0
1671211477.567,-4.883,-22.949,-28.809,-30.762,161.133,0
1671211477.571,4.883,-21.973,-24.902,-19.043,219.238,0
1671211477.575,-38.086,-26.855,-18.555,-31.250,25.391,0
1671211477.579,-79.102,-25.391,-11.719,-47.852,-26.367,0
1671211477.583,-64.453,-28.320,-16.113,-49.805,-13.184,0
1671211477.585,-18.555,-34.180,-20.508,-43.945,-55.176,0
1671211477.589,-6.836,-34.668,-20.996,-34.180,-34.668,0
1671211477.593,-41.504,-27.832,-20.996,-24.902,161.621,0
1671211477.597,-85.449,-23.926,-26.367,-22.461,379.395,0
1671211477.601,-70.801,-20.020,-21.484,-29.297,139.648,0
1671211477.605,-13.184,-17.090,-16.113,-34.180,-67.383,0
1671211477.609,7.324,-15.625,-23.438,-19.531,83.984,0
1671211477.612,-29.297,-21.484,-26.367,-6.348,291.504,0
1671211477.616,-75.195,-26.855,-27.344,-22.949,91.797,0
1671211477.620,-65.430,-26.367,-25.879,-39.062,-146.973,0
1671211477.624,-14.160,-27.832,-18.555,-32.227,-71.289,0
1671211477.628,5.859,-24.902,-18.555,-20.996,71.289,0
1671211477.631,-33.203,-25.879,-27.344,-28.809,4.395,0
1671211477.635,-80.078,-25.879,-29.785,-39.551,-72.266,0
1671211477.639,-79.590,-19.531,-23.438,-47.852,-43.457,0
1671211477.643,-28.320,-18.555,-17.090,-49.316,-80.078,0
1671211477.647,12.695,-21.484,-20.508,-34.180,-26.855,0
1671211477.651,-11.230,-20.996,-22.461,-20.996,86.914,0
1671211477.655,-55.664,-20.996,-17.090,-17.578,241.211,0
1671211477.658,-62.500,-22.461,-14.648,-21.484,283.203,0
1671211477.662,-20.996,-19.531,-17.578,-32.715,-90.820,0
1671211477.666,19.043,-18.555,-26.855,-18.066,-147.461,0
1671211477.670,13.672,-18.555,-29.785,0.488,89.355,0
1671211477.674,-31.250,-11.719,-26.855,-5.859,21.484,0
1671211477.675,-59.570,-15.137,-24.414,-22.461,-149.902,0
1671211477.679,-22.461,-19.531,-20.020,-23.926,-138.184,0
1671211477.683,22.461,-16.113,-8.301,-16.113,-3.906,0
1671211477.687,5.859,-17.090,-5.859,-15.137,-9.766,0
1671211477.691,-46.387,-20.020,-20.508,-20.996,-59.570,0
1671211477.695,-69.824,-19.531,-24.902,-28.320,15.625,0
1671211477.699,-33.203,-21.484,-29.297,-19.043,221.191,2
1671211477.702,8.301,-21.973,-25.879,-17.578,108.887,0
1671211477.706,9.766,-17.578,-20.020,-19.531,-94.727,0
1671211477.710,-30.762,-15.137,-19.043,-11.230,8.789,0
1671211477.714,-60.547,-19.043,-15.137,-18.066,20.020,0
1671211477.718,-38.086,-18.555,-12.695,-29.785,-83.496,0
1671211477.722,6.836,-18.066,-14.648,-29.297,-89.355,0
1671211477.726,12.695,-16.602,-11.719,-19.531,-30.273,0
1671211477.730,-35.156,-16.602,-13.184,-10.742,11.719,0
1671211477.734,-76.660,-13.672,-17.578,-20.996,-49.316,0
1671211477.738,-53.711,-10.742,-14.648,-30.762,-48.828,0
1671211477.742,0.000,-15.137,-11.230,-28.809,95.703,0
1671211477.746,9.766,-18.555,-13.672,-20.996,95.215,0
1671211477.749,-30.273,-15.625,-15.137,-11.719,-18.066,0
1671211477.753,-73.730,-17.090,-15.625,-23.438,-82.520,0
1671211477.757,-63.477,-21.484,-17.578,-33.691,57.129,0
1671211477.761,-15.625,-20.020,-15.137,-28.320,97.168,0
1671211477.765,-0.488,-13.672,-15.625,-23.438,-33.691,0
1671211477.780,-41.992,-17.090,-25.879,-27.344,80.566,0
1671211477.784,-85.938,-25.391,-29.785,-29.785,187.012,0
1671211477.788,-75.195,-18.555,-26.367,-39.551,77.148,0
1671211477.792,-27.344,-16.113,-20.020,-48.828,-100.098,0
1671211477.796,6.836,-20.020,-15.137,-28.809,-92.285,0
1671211477.800,-25.391,-18.555,-21.973,-8.301,255.859,0
1671211477.804,-74.707,-17.090,-26.367,-21.973,243.652,0
1671211477.807,-70.312,-14.160,-20.996,-39.062,-59.570,0
1671211477.811,-23.438,-15.625,-14.648,-29.785,-78.613,0
1671211477.815,11.230,-15.137,-16.602,-13.672,62.988,0
1671211477.819,-7.812,-11.230,-19.531,-11.230,5.371,0
1671211477.823,-53.223,-13.672,-19.531,-11.719,-102.051,0
1671211477.826,-57.129,-14.160,-19.531,-15.625,-78.613,0
1671211477.830,-17.578,-15.137,-18.555,-22.949,-93.750,0
1671211477.834,13.672,-16.602,-19.531,-15.625,-123.535,0
1671211477.838,-3.906,-17.090,-21.484,-16.113,-72.266,0
1671211477.842,-52.734,-18.066,-20.508,-21.973,41.504,0
1671211477.846,-65.430,-19.043,-19.043,-29.785,55.664,0
1671211477.850,-26.367,-19.531,-16.602,-45.898,-20.996,0
1671211477.853,18.555,-13.672,-14.160,-30.273,-54.688,0
1671211477.857,6.836,-14.160,-18.066,-11.230,118.164,0
1671211477.861,-50.781,-19.043,-21.484,-20.996,248.535,0
1671211477.865,-78.125,-12.207,-22.949,-40.039,32.227,0
1671211477.869,-42.969,-12.695,-24.414,-46.875,-30.762,0
1671211477.870,3.906,-13.184,-16.602,-34.180,-16.113,0
1671211477.874,-2.930,-12.207,-19.043,-21.973,-12.695,0
1671211477.878,-50.781,-15.137,-25.879,-19.531,68.359,0
1671211477.882,-76.172,-17.090,-25.879,-36.621,0.488,0
1671211477.886,-44.434,-16.113,-24.414,-41.992,103.516,0
1671211477.890,4.395,-10.742,-16.113,-29.785,104.004,0
1671211477.894,4.395,-12.207,-14.160,-24.902,5.371,0
1671211477.897,-43.945,-19.531,-20.020,-25.391,99.609,0
1671211477.901,-80.078,-19.531,-26.855,-28.809,276.367,0
1671211477.905,-59.570,-16.113,-28.320,-45.410,147.461,0
1671211477.909,-5.371,-13.184,-20.508,-47.852,-67.871,0
1671211477.913,10.254,-14.160,-15.137,-35.156,-13.184,0
1671211477.915,-32.227,-19.043,-22.949,-35.156,42.480,0
1671211477.919,-74.707,-21.973,-29.297,-45.898,-17.578,0
1671211477.923,-57.129,-18.555,-22.461,-43.945,-72.266,0
1671211477.927,5.371,-11.230,-18.066,-25.879,-37.109,0
1671211477.931,22.461,-14.648,-16.602,-17.578,-14.160,0
1671211477.935,-27.832,-20.020,-18.066,-17.578,70.312,0
1671211477.939,-70.312,-19.043,-21.973,-22.461,124.512,0
1671211477.942,-53.711,-19.531,-14.648,-29.297,151.367,0
1671211477.946,-6.836,-19.043,-16.113,-27.832,197.266,0
1671211477.950,14.160,-21.484,-24.902,-25.879,58.594,0
1671211477.954,-18.555,-16.113,-11.230,-11.230,7.324,0
1671211477.958,-62.988,-14.648,-10.254,-6.348,120.605,0
1671211477.960,-59.082,-14.648,-19.043,-26.367,-71.777,0
1671211477.964,-18.555,-10.254,-19.531,-35.645,-166.504,0
1671211477.968,8.301,-13.184,-19.531,-23.438,100.586,0
1671211477.972,-15.137,-11.230,-24.414,-13.672,243.652,0
1671211477.976,-62.012,-10.742,-32.715,-30.762,67.871,0
1671211477.980,-66.895,-18.066,-30.762,-39.551,20.996,0
1671211477.984,-26.367,-19.531,-26.367,-33.691,110.840,0
1671211477.987,4.395,-16.113,-21.484,-21.973,254.395,0
1671211477.991,-12.207,-7.812,-17.578,-9.766,135.742,0
1671211477.995,-53.223,-7.324,-19.531,-17.090,-49.805,0
1671211477.999,-64.453,-15.625,-27.832,-33.203,-50.781,0
1671211478.003,-25.879,-19.531,-30.273,-34.180,-64.453,0
1671211478.007,21.973,-16.113,-23.438,-22.461,-70.801,0
1671211478.011,3.418,-17.578,-22.949,-10.742,-50.293,0
1671211478.015,-57.129,-20.996,-26.855,-8.789,46.875,0
1671211478.019,-72.754,-13.672,-26.855,-26.367,71.289,0
1671211478.023,-31.250,-9.277,-25.879,-30.762,-22.461,0
1671211478.027,15.137,-13.184,-17.090,-10.254,-60.547,0
1671211478.031,12.695,-9.766,-8.301,7.324,173.828,0
1671211478.034,-40.527,-11.719,-18.066,1.953,261.719,0
1671211478.038,-74.219,-20.020,-30.762,-26.367,-37.109,0
1671211478.042,-44.434,-20.996,-28.320,-43.457,-97.656,0
1671211478.046,3.418,-21.973,-22.949,-28.320,-37.109,0
1671211478.050,2.441,-16.113,-16.602,-17.578,-46.387,0
1671211478.050,-40.527,-9.766,-14.160,-25.391,-34.668,0
1671211478.054,-70.801,-11.719,-16.113,-28.320,3.418,0
1671211478.058,-46.387,-15.625,-15.625,-28.809,61.035,0
1671211478.062,2.441,-15.625,-14.160,-27.344,20.996,0
1671211478.066,8.789,-12.207,-14.160,-16.113,-28.809,0
1671211478.070,-40.527,-19.043,-14.160,-12.207,27.344,0
1671211478.074,-76.172,-24.902,-17.090,-9.277,388.672,0
1671211478.077,-54.688,-20.020,-15.625,-17.578,390.137,0
1671211478.081,-8.301,-16.113,-13.184,-28.320,-18.555,0
1671211478.085,9.766,-16.602,-17.578,-15.137,-30.273,0
1671211478.089,-30.762,-16.602,-10.254,-2.441,33.203,0
1671211478.093,-73.242,-19.531,-10.254,-14.160,-47.363,0
1671211478.097,-65.918,-18.555,-20.996,-26.367,-137.695,0
1671211478.101,-20.020,-16.113,-24.902,-25.879,-133.789,0
1671211478.105,2.441,-21.973,-20.020,-18.555,-97.168,0
1671211478.109,-35.156,-24.414,-19.531,-20.020,-95.703,0
1671211478.113,-77.637,-15.625,-18.555,-28.809,-120.117,0
1671211478.117,-65.918,-14.160,-15.137,-29.785,-23.438,0
1671211478.121,-19.531,-21.484,-19.531,-34.668,14.648,0
1671211478.124,4.883,-19.531,-23.926,-30.273,21.484,0
1671211478.128,-25.391,-19.531,-27.344,-14.160,-36.621,0
1671211478.132,-68.359,-22.461,-31.738,-8.789,177.246,0
1671211478.136,-72.266,-19.531,-29.297,-18.555,293.457,0
1671211478.140,-28.320,-16.602,-20.020,-31.738,-75.684,0
1671211478.155,14.160,-15.625,-13.184,-21.973,-94.727,0
1671211478.159,-15.625,-14.648,-20.996,-13.184,47.363,0
1671211478.163,-62.988,-17.578,-27.344,-15.137,62.988,0
1671211478.167,-70.801,-21.484,-30.273,-23.926,-49.316,0
1671211478.171,-32.715,-23.926,-37.598,-28.809,-91.309,0
1671211478.175,16.113,-21.973,-28.320,-14.648,299.805,0
1671211478.179,-3.418,-21.484,-18.066,-3.418,251.465,0
1671211478.182,-62.012,-20.996,-25.391,-18.066,-69.336,0
1671211478.186,-68.848,-16.602,-27.832,-27.832,-18.066,0
1671211478.190,-20.996,-16.602,-22.949,-17.578,208.008,0
1671211478.194,21.973,-9.766,-19.043,-22.461,76.660,0
1671211478.198,12.207,-12.207,-14.648,-24.414,-58.105,0
1671211478.200,-42.480,-19.043,-15.625,-18.066,-0.977,0
1671211478.204,-74.219,-17.090,-25.391,-26.855,-53.711,0
1671211478.208,-50.293,-16.113,-30.273,-36.133,-125.977,0
1671211478.212,-3.906,-20.020,-26.367,-25.391,-148.438,0
1671211478.216,-8.789,-24.902,-25.879,-16.113,-28.320,0
1671211478.220,-59.570,-23.926,-28.809,-15.625,84.961,0
1671211478.224,-84.961,-26.855,-26.855,-28.320,93.262,0
1671211478.227,-48.828,-26.855,-20.508,-34.668,-14.648,0
1671211478.231,3.906,-24.902,-21.484,-22.461,72.266,0
1671211478.235,8.789,-20.996,-25.391,-6.348,243.652,0
1671211478.239,-33.691,-14.648,-21.973,-7.812,79.102,0
1671211478.243,-73.730,-21.484,-26.367,-31.738,-0.488,0
1671211478.245,-53.711,-22.461,-28.320,-39.551,62.988,0
1671211478.249,-2.441,-15.137,-21.484,-31.738,9.277,0
1671211478.253,9.766,-16.113,-19.043,-21.484,-20.996,0
1671211478.257,-35.156,-22.949,-20.508,-22.461,-42.480,0
1671211478.261,-69.336,-20.508,-24.902,-27.832,128.906,0
1671211478.265,-47.852,-19.043,-27.344,-39.062,132.324,0
1671211478.269,-0.977,-18.066,-20.996,-41.504,-15.137,0
1671211478.272,19.531,-14.160,-12.695,-27.832,28.809,0
1671211478.276,-17.578,-18.555,-18.555,-14.160,276.855,0
1671211478.280,-73.730,-22.461,-32.227,-28.320,126.953,0
1671211478.284,-70.312,-25.391,-28.809,-45.410,-142.090,0
1671211478.288,-17.090,-26.855,-30.273,-46.387,-133.301,0
1671211478.290,11.719,-21.973,-32.227,-32.715,-105.957,0
1671211478.294,-25.879,-15.625,-28.809,-24.902,-72.266,0
1671211478.298,-62.012,-13.672,-24.414,-29.297,-34.668,0
1671211478.302,-54.199,-19.531,-20.996,-32.227,-37.109,0
1671211478.306,-14.160,-22.461,-22.949,-32.715,-46.387,0
1671211478.310,17.090,-20.020,-24.414,-26.855,-41.016,0
1671211478.314,-9.277,-19.531,-23.438,-22.461,-27.344,0
1671211478.317,-58.105,-20.020,-22.461,-21.973,122.070,0
1671211478.321,-69.824,-19.043,-27.832,-31.250,171.875,0
1671211478.325,-21.973,-14.648,-32.715,-39.551,-81.543,0
1671211478.329,20.508,-12.695,-23.438,-25.391,-103.027,0
1671211478.333,-2.441,-13.672,-20.508,-19.531,46.875,0
1671211478.336,-51.270,-15.137,-30.273,-29.785,-31.738,0
1671211478.340,-60.059,-14.648,-24.414,-39.062,-89.844,0
1671211478.344,-23.438,-19.043,-20.020,-40.039,85.449,0
1671211478.348,13.184,-21.973,-20.508,-28.320,258.789,0
1671211478.352,-5.859,-22.949,-19.043,-19.531,166.016,0
1671211478.356,-61.035,-29.297,-24.902,-31.738,14.160,0
1671211478.360,-76.660,-27.344,-23.926,-39.551,45.898,0
1671211478.363,-37.598,-25.879,-21.973,-23.926,332.031,0
1671211478.367,0.977,-27.344,-25.391,-24.902,238.281,0
1671211478.371,-4.395,-20.508,-26.367,-27.344,-74.219,0
1671211478.375,-53.223,-19.531,-24.414,-26.855,-32.715,0
1671211478.379,-78.613,-19.531,-21.973,-42.969,11.719,0
1671211478.381,-38.574,-15.137,-21.484,-46.387,-39.551,0
1671211478.385,9.277,-12.207,-18.555,-39.062,-103.027,0
1671211478.389,3.906,-16.113,-15.137,-34.180,-32.715,0
1671211478.393,-41.992,-23.926,-20.508,-34.180,25.879,0
1671211478.397,-72.266,-29.297,-27.344,-43.945,-22.949,0
1671211478.401,-42.480,-23.926,-26.367,-45.898,-4.395,0
1671211478.405,13.672,-18.066,-26.855,-30.273,203.125,0
1671211478.408,26.367,-12.695,-24.414,-14.648,285.645,0
1671211478.412,-18.555,-11.230,-25.879,-20.996,31.738,0
1671211478.416,-62.012,-17.578,-28.809,-33.691,-118.164,0
1671211478.420,-43.457,-20.508,-33.203,-35.645,-21.484,0
1671211478.424,6.348,-16.113,-28.320,-35.645,-53.711,0
1671211478.425,15.137,-16.113,-20.020,-25.879,-162.598,0
1671211478.429,-19.043,-15.137,-17.090,-11.230,-7.812,0
1671211478.433,-58.594,-15.625,-24.414,-27.344,84.961,0
1671211478.437,-49.316,-13.184,-28.320,-45.898,-36.621,0
1671211478.441,-2.930,-11.230,-22.949,-38.574,-116.699,0
1671211478.445,19.531,-15.625,-26.855,-27.832,-18.555,0
1671211478.449,-10.742,-13.672,-29.297,-14.160,377.930,0
1671211478.452,-63.965,-13.184,-26.367,-23.926,264.160,0
1671211478.456,-66.406,-16.113,-25.879,-40.527,-91.797,0
1671211478.460,-10.254,-12.207,-22.949,-33.691,-70.801,0
1671211478.464,14.160,-13.672,-26.855,-31.738,-53.223,0
1671211478.468,-14.160,-12.695,-25.391,-27.344,10.742,0
1671211478.473,-62.500,-9.277,-21.973,-25.879,4.395,0
1671211478.477,-68.848,-9.277,-27.832,-36.621,-20.996,0
1671211478.481,-14.160,-8.301,-25.879,-39.062,13.184,0
1671211478.485,20.020,-7.324,-17.578,-27.832,-85.449,0
1671211478.489,-9.766,-10.254,-17.578,-24.414,-134.766,0
1671211478.493,-60.547,-16.602,-22.949,-28.320,13.672,0
1671211478.497,-70.801,-19.043,-25.879,-30.762,82.520,0
1671211478.500,-31.250,-18.555,-18.555,-38.086,-82.520,0
1671211478.504,-1.465,-21.973,-21.484,-37.109,-103.516,0
1671211478.508,-19.043,-23.438,-28.320,-18.066,94.238,0
1671211478.512,-66.406,-18.555,-27.832,-15.625,126.953,0
1671211478.516,-75.195,-16.113,-23.926,-32.715,-55.664,0
1671211478.530,-35.645,-19.531,-19.043,-31.738,-84.473,0
1671211478.534,9.766,-20.996,-25.391,-18.555,61.523,0
1671211478.538,7.812,-19.043,-27.832,-9.277,88.867,0
1671211478.542,-47.363,-20.020,-21.484,-9.277,41.992,0
1671211478.546,-73.730,-20.020,-20.020,-17.578,13.672,0
1671211478.550,-36.621,-21.484,-21.484,-13.184,343.750,0
1671211478.554,11.230,-20.508,-12.207,-11.230,540.039,0
1671211478.557,3.418,-18.066,-15.137,-20.996,94.727,0
1671211478.561,-39.551,-23.926,-26.367,-19.531,-57.129,0
1671211478.565,-70.801,-27.344,-27.344,-32.227,-13.184,0
1671211478.569,-46.875,-26.367,-30.762,-41.992,-140.625,0
1671211478.573,10.742,-24.902,-26.855,-26.367,-166.504,0
1671211478.575,18.066,-20.996,-27.832,-19.531,-63.477,0
1671211478.579,-31.250,-19.043,-27.344,-22.949,-11.719,0
1671211478.583,-69.824,-26.367,-25.391,-30.273,-51.758,0
1671211478.587,-45.898,-26.855,-23.438,-38.574,-74.219,0
1671211478.591,4.395,-21.484,-32.227,-36.621,-0.977,0
1671211478.595,11.719,-22.949,-43.945,-32.715,93.750,0
1671211478.599,-39.062,-26.855,-42.480,-27.832,174.805,0
1671211478.602,-80.078,-28.809,-43.945,-34.668,148.438,0
1671211478.606,-59.082,-30.762,-40.039,-39.551,124.512,0
1671211478.610,-9.277,-26.367,-30.273,-24.902,297.852,1
1671211478.614,3.906,-19.043,-24.414,-20.020,100.098,0
1671211478.618,-38.086,-23.438,-28.809,-20.996,-37.598,0
1671211478.620,-83.008,-25.879,-34.668,-34.668,-52.246,0
1671211478.624,-72.266,-23.926,-38.086,-47.363,-118.164,0
1671211478.628,-18.066,-18.555,-38.574,-42.480,-88.867,0
1671211478.632,5.371,-13.184,-29.785,-34.668,-71.777,0
1671211478.636,-25.391,-14.160,-25.879,-20.996,139.160,0
1671211478.640,-65.918,-10.742,-20.996,-22.949,98.633,0
1671211478.644,-67.871,-9.277,-12.695,-40.039,-92.773,0
1671211478.647,-16.602,-7.812,-20.508,-39.551,-87.402,0
1671211478.651,20.020,-12.207,-29.785,-17.090,226.562,0
1671211478.655,-10.742,-15.137,-30.273,-18.555,159.668,0
1671211478.659,-66.895,-9.277,-30.273,-33.203,-116.699,0
1671211478.663,-74.219,-16.113,-28.809,-40.039,-109.375,0
1671211478.665,-21.973,-14.648,-16.602,-33.691,-125.977,0
1671211478.669,13.672,-8.301,-8.301,-24.902,-103.516,0
1671211478.673,-6.348,-11.230,-13.184,-15.625,-57.617,0
1671211478.677,-54.199,-17.090,-15.625,-11.230,-28.320,0
1671211478.681,-68.848,-16.602,-23.926,-21.484,-63.477,0
1671211478.685,-30.273,-18.555,-31.738,-27.832,-53.223,0
1671211478.689,14.160,-17.090,-25.391,-17.578,0.000,0
1671211478.692,5.371,-17.578,-20.996,-8.789,112.305,0
1671211478.696,-49.805,-22.949,-23.438,-19.531,209.961,0
1671211478.700,-74.707,-20.996,-18.555,-34.180,-64.453,0
1671211478.704,-35.645,-15.625,-20.020,-34.180,-143.555,0
1671211478.708,18.555,-20.996,-25.391,-23.438,31.250,0
1671211478.710,2.930,-26.855,-23.438,-11.230,-4.395,0
1671211478.714,-51.270,-23.438,-20.508,-12.695,-97.168,0
1671211478.718,-71.777,-17.578,-17.090,-21.973,47.852,0
1671211478.722,-44.434,-17.090,-18.066,-20.996,229.004,0
1671211478.726,0.488,-20.020,-24.414,-19.043,107.910,0
1671211478.730,4.883,-23.926,-24.414,-17.578,-15.137,0
1671211478.734,-35.156,-26.367,-18.066,-19.043,87.402,0
1671211478.737,-65.918,-24.902,-12.695,-17.578,312.012,0
1671211478.741,-40.039,-20.508,-13.672,-30.273,159.668,0
1671211478.745,7.324,-14.648,-15.137,-39.062,-143.555,0
1671211478.749,10.254,-10.254,-11.230,-27.344,-106.934,0
1671211478.753,-33.203,-5.371,-10.254,-23.926,18.555,0
1671211478.758,-79.590,-10.742,-15.137,-36.133,-67.383,0
1671211478.762,-57.617,-18.066,-14.648,-36.621,-170.898,0
1671211478.766,0.488,-18.555,-8.301,-30.273,2.930,0
1671211478.770,19.043,-10.254,0.000,-16.602,102.051,0
1671211478.774,-17.578,-11.230,-3.418,-12.207,-11.230,0
1671211478.778,-63.477,-18.555,-9.766,-26.367,42.969,0
1671211478.782,-58.594,-20.996,-19.531,-34.180,219.238,0
1671211478.785,-13.184,-17.090,-18.555,-26.855,211.914,0
1671211478.789,6.348,-9.766,-11.719,-17.578,-41.992,0
1671211478.793,-19.043,-10.742,-13.672,-7.812,-61.523,0
1671211478.797,-61.523,-15.625,-17.578,-11.230,-4.883,0
1671211478.801,-63.965,-16.602,-18.555,-27.344,-99.609,0
1671211478.800,-18.066,-15.625,-20.020,-31.250,-179.199,0
1671211478.804,22.949,-12.695,-17.090,-17.578,-89.844,0
1671211478.808,-9.277,-16.113,-21.973,-14.160,111.816,0
1671211478.812,-59.082,-21.484,-24.414,-23.438,21.973,0
1671211478.816,-58.105,-21.484,-16.602,-31.250,-95.703,0
1671211478.820,-15.625,-18.555,-19.043,-28.320,-38.086,0
1671211478.824,22.461,-15.625,-18.555,-3.418,291.992,0
1671211478.827,-3.906,-16.113,-10.254,2.930,301.758,0
1671211478.831,-54.688,-14.160,-13.184,-11.719,-85.938,0
1671211478.835,-63.965,-12.695,-18.555,-25.391,-97.168,0
1671211478.839,-26.367,-11.230,-19.531,-25.879,-37.109,0
1671211478.843,7.324,-18.555,-20.020,-22.949,-120.117,0
1671211478.847,-5.371,-22.949,-22.461,-21.973,-104.004,0
1671211478.851,-50.781,-16.602,-22.949,-21.973,-5.371,0
1671211478.855,-68.359,-16.113,-24.414,-31.738,2.930,0
1671211478.859,-39.062,-19.043,-25.879,-43.945,-77.148,0
1671211478.863,-2.930,-22.461,-20.996,-40.039,-50.293,0
1671211478.867,-10.742,-28.809,-16.602,-28.320,157.715,0
1671211478.871,-56.641,-23.438,-19.043,-27.344,148.438,0
1671211478.874,-78.613,-13.672,-24.902,-38.086,13.184,0
1671211478.878,-44.434,-9.277,-20.508,-51.270,-56.152,0
1671211478.882,7.812,-6.836,-17.578,-36.133,88.867,0
1671211478.886,3.418,-10.742,-20.996,-20.508,232.422,0
1671211478.890,-56.641,-14.648,-21.973,-36.621,-23.926,0
1671211478.905,-82.031,-11.719,-18.555,-36.133,-123.535,0
1671211478.909,-43.457,-10.742,-15.625,-32.715,-46.387,0
1671211478.913,0.000,-18.555,-16.602,-39.062,37.109,0
1671211478.917,2.930,-14.648,-18.555,-34.180,-61.523,0
1671211478.921,-41.016,-13.184,-17.578,-27.832,-108.398,0
1671211478.925,-65.918,-13.184,-17.578,-16.602,237.305,0
1671211478.929,-45.410,-8.301,-16.113,-28.320,166.992,0
1671211478.932,1.465,-15.137,-13.672,-41.992,-138.184,0
1671211478.936,22.461,-15.625,-13.184,-22.949,-58.594,0
1671211478.940,-24.902,-12.695,-16.113,-18.066,92.773,0
1671211478.944,-68.359,-12.207,-10.254,-36.621,-36.621,0
1671211478.948,-53.223,-13.184,-9.766,-46.387,-63.965,0
1671211478.950,-0.977,-16.113,-14.160,-38.086,-8.301,0
1671211478.954,15.625,-17.578,-13.672,-21.484,15.625,0
1671211478.958,-25.879,-17.578,-12.207,-20.508,-26.855,0
1671211478.962,-66.895,-22.461,-12.207,-26.855,-20.020,0
1671211478.966,-59.570,-27.344,-18.555,-29.785,-47.363,0
1671211478.970,-7.324,-19.043,-11.719,-22.949,-16.602,0
1671211478.974,17.090,-13.184,-14.160,-15.625,70.312,0
1671211478.977,-14.648,-12.207,-17.090,-15.137,10.742,0
1671211478.981,-61.035,-17.578,-3.906,-13.184,89.844,0
1671211478.985,-66.895,-20.020,-7.324,-19.043,152.832,0
1671211478.989,-14.160,-9.766,-15.137,-21.973,-79.590,0
1671211478.993,19.531,-10.742,-16.113,-11.719,-116.699,0
1671211478.996,0.977,-14.160,-17.578,-5.371,4.883,0
1671211479.000,-39.062,-14.160,-15.137,-7.812,-17.090,0
1671211479.004,-57.617,-21.484,-13.672,-23.926,-71.777,0
1671211479.008,-17.090,-26.367,-23.926,-31.250,-29.785,0
1671211479.012,20.508,-22.461,-22.949,-14.648,178.223,0
1671211479.016,-8.789,-20.020,-14.648,-10.742,183.105,0
1671211479.020,-62.012,-22.461,-14.648,-25.879,-59.082,0
1671211479.023,-74.707,-21.484,-18.066,-36.621,-67.871,0
1671211479.027,-35.645,-20.996,-17.578,-31.738,177.246,0
1671211479.031,1.465,-18.555,-18.066,-24.902,72.266,0
1671211479.035,-6.836,-12.695,-19.531,-19.043,-69.336,0
1671211479.039,-50.293,-13.672,-20.020,-20.020,11.230,0
1671211479.040,-72.266,-14.160,-17.578,-32.715,-36.621,0
1671211479.044,-35.645,-15.137,-14.648,-41.016,-81.543,0
1671211479.048,9.277,-18.555,-15.137,-31.738,-49.805,0
1671211479.052,9.277,-15.625,-14.160,-19.043,6.348,0
1671211479.056,-41.504,-16.602,-15.137,-13.672,48.340,0
1671211479.060,-69.336,-15.625,-8.301,-18.555,92.285,0
1671211479.064,-39.551,-16.602,-11.719,-36.133,76.660,0
1671211479.067,7.812,-20.508,-20.020,-27.344,203.613,0
1671211479.071,8.301,-22.949,-26.855,-14.160,365.234,0
1671211479.075,-34.668,-19.043,-26.855,-23.926,85.449,0
1671211479.079,-64.941,-20.508,-16.113,-37.598,-75.684,0
1671211479.083,-46.387,-25.391,-22.949,-46.875,-62.012,0
1671211479.085,4.883,-20.508,-29.785,-41.504,-124.512,0
1671211479.089,11.230,-18.066,-28.809,-23.926,-146.973,0
1671211479.093,-32.715,-15.137,-27.344,-11.230,11.719,0
1671211479.097,-64.941,-14.648,-19.043,-8.789,203.613,0
1671211479.101,-57.617,-19.531,-17.578,-16.113,-15.137,0
1671211479.105,-10.254,-22.461,-23.438,-19.043,-66.406,0
1671211479.109,12.695,-19.531,-29.297,-18.066,108.398,0
1671211479.112,-26.367,-20.508,-36.621,-11.230,395.508,0
1671211479.116,-75.684,-17.578,-31.250,-25.391,254.883,0
1671211479.120,-65.430,-16.113,-26.367,-47.363,-113.281,0
1671211479.124,-7.812,-18.555,-28.809,-47.852,-113.281,0
1671211479.128,16.113,-12.207,-23.926,-31.250,-37.109,0
1671211479.131,-24.902,-16.602,-12.695,-26.367,-74.219,0
1671211479.135,-73.730,-21.973,-14.160,-42.480,-105.469,0
1671211479.139,-68.359,-18.066,-16.113,-45.410,-67.383,0
1671211479.143,-22.461,-18.555,-14.648,-43.457,-31.738,0
1671211479.147,2.930,-19.043,-15.625,-34.180,-49.805,0
1671211479.151,-22.461,-16.113,-18.555,-27.832,-30.762,0
1671211479.155,-69.336,-19.531,-20.508,-30.762,225.098,0
1671211479.158,-76.660,-16.113,-17.578,-32.227,211.426,0
1671211479.162,-28.809,-6.836,-15.137,-34.180,-129.883,0
1671211479.166,1.465,-12.695,-23.438,-35.645,-100.586,0
1671211479.170,-21.973,-17.090,-25.391,-28.809,92.285,0
1671211479.174,-63.965,-11.719,-17.090,-26.855,71.289,0
1671211479.175,-75.195,-13.184,-18.066,-41.504,-179.199,0
1671211479.179,-31.738,-14.648,-20.020,-44.434,-185.547,0
1671211479.183,10.254,-13.184,-16.602,-24.414,263.184,0
1671211479.187,-13.672,-14.648,-23.926,-21.484,250.977,0
1671211479.191,-68.359,-21.973,-28.320,-33.691,-80.566,0
1671211479.195,-81.055,-19.531,-18.555,-33.691,24.414,0
1671211479.199,-38.574,-16.113,-15.137,-30.762,210.938,0
1671211479.202,2.441,-18.555,-17.090,-28.320,-28.809,0
1671211479.206,-6.348,-14.648,-19.043,-20.996,-140.625,0
1671211479.210,-53.711,-12.207,-21.484,-24.414,-42.969,0
1671211479.214,-77.148,-13.184,-15.137,-35.645,-69.336,0
1671211479.218,-37.598,-10.254,-12.207,-35.645,-112.305,0
1671211479.223,7.812,-11.719,-15.625,-27.344,-106.934,0
1671211479.227,2.441,-16.113,-16.602,-21.484,-16.602,0
1671211479.231,-51.758,-16.602,-22.461,-37.109,79.102,0
1671211479.235,-84.961,-17.090,-23.438,-50.293,9.766,0
1671211479.239,-56.152,-18.555,-17.090,-47.363,-91.797,0
1671211479.243,-8.301,-19.531,-20.020,-37.598,140.137,0
1671211479.247,-5.859,-23.438,-27.344,-26.367,307.129,0
1671211479.250,-50.781,-25.391,-28.809,-32.227,9.277,0
1671211479.254,-76.172,-25.391,-25.879,-41.992,-182.617,0
1671211479.258,-50.781,-26.855,-26.367,-41.504,-58.105,0
1671211479.262,-6.348,-28.320,-24.414,-37.598,-11.230,0
1671211479.266,11.230,-23.926,-18.555,-25.879,-50.293,0
1671211479.280,-17.090,-17.578,-9.766,-15.625,-18.555,0
1671211479.284,-57.617,-21.484,-11.719,-20.508,-9.277,0
1671211479.288,-51.758,-19.531,-21.484,-35.645,2.441,0
1671211479.292,-0.977,-18.555,-18.555,-41.016,-59.570,0
1671211479.296,17.578,-25.879,-24.902,-34.180,9.766,0
1671211479.300,-17.578,-28.320,-28.320,-18.555,409.180,0
1671211479.304,-64.453,-24.902,-23.438,-26.855,481.445,0
1671211479.307,-57.617,-18.066,-14.160,-41.016,62.988,0
1671211479.311,-1.953,-18.555,-9.766,-25.879,-67.383,0
1671211479.315,22.949,-20.508,-21.973,-16.602,81.543,0
1671211479.319,-6.836,-14.648,-17.578,-17.578,-36.621,0
1671211479.323,-49.316,-14.648,-10.254,-19.043,-131.836,0
1671211479.325,-51.270,-16.113,-16.602,-24.902,-109.375,0
1671211479.329,-5.859,-15.625,-13.672,-28.809,-134.277,0
1671211479.333,28.809,-14.160,-10.742,-23.438,-111.816,0
1671211479.337,2.930,-7.324,-18.066,-15.625,-96.680,0
1671211479.341,-51.758,-15.137,-23.438,-22.461,-61.035,0
1671211479.345,-59.082,-17.090,-20.020,-33.691,42.480,0
1671211479.349,-11.719,-14.160,-20.020,-29.785,-36.133,0
1671211479.352,17.090,-17.578,-30.762,-24.902,-74.219,0
1671211479.356,-5.371,-20.508,-31.738,-17.090,96.191,0
1671211479.360,-58.105,-20.508,-26.367,-18.066,229.004,0
1671211479.364,-71.289,-13.672,-16.602,-39.062,-91.309,0
1671211479.368,-30.273,-16.113,-11.230,-42.969,-176.270,0
1671211479.370,7.324,-21.973,-20.020,-28.320,-50.293,0
1671211479.374,-8.301,-21.973,-29.297,-17.090,-47.852,0
1671211479.378,-52.246,-16.113,-25.879,-21.484,13.184,0
1671211479.382,-71.289,-16.602,-21.973,-33.691,-46.387,0
1671211479.386,-33.203,-18.555,-19.531,-27.832,94.727,0
1671211479.390,17.578,-15.625,-14.160,-21.973,79.102,0
1671211479.394,5.859,-19.043,-11.719,-22.461,27.832,0
1671211479.397,-50.293,-23.438,-17.578,-19.531,104.980,0
1671211479.401,-78.125,-25.391,-21.484,-21.973,233.398,0
1671211479.405,-47.363,-26.367,-30.762,-40.039,95.215,0
1671211479.409,-2.441,-25.391,-31.738,-41.016,-41.504,0
1671211479.413,-2.441,-21.484,-24.902,-18.555,52.734,0
1671211479.415,-44.434,-10.742,-20.996,-11.230,105.469,0
1671211479.419,-74.707,-6.836,-25.391,-32.715,-48.340,0
1671211479.423,-51.270,-12.207,-27.832,-40.527,-120.605,0
1671211479.427,-4.395,-13.672,-21.484,-25.391,-70.312,0
1671211479.431,7.812,-12.207,-12.207,-17.090,-44.922,0
1671211479.435,-41.992,-13.184,-17.578,-21.973,52.246,0
1671211479.439,-86.426,-14.648,-18.555,-30.762,39.551,0
1671211479.442,-65.918,-18.555,-23.926,-34.668,71.289,0
1671211479.446,-20.996,-20.508,-29.785,-36.133,150.391,0
1671211479.450,-3.418,-16.113,-27.832,-33.203,-33.203,0
1671211479.454,-32.715,-13.184,-23.926,-26.367,-9.277,0
1671211479.458,-71.777,-15.625,-20.508,-33.691,50.781,0
1671211479.461,-63.477,-21.484,-29.297,-46.387,-60.547,0
1671211479.465,-5.371,-21.973,-28.320,-40.039,-47.363,0
1671211479.469,17.578,-19.531,-28.809,-30.762,62.988,0
1671211479.473,-21.973,-20.020,-28.320,-20.020,243.164,1
1671211479.477,-67.871,-16.113,-22.949,-24.414,141.113,0
1671211479.481,-66.895,-16.602,-27.832,-38.574,-58.594,0
1671211479.485,-22.461,-19.531,-21.973,-41.504,6.348,0
1671211479.488,11.230,-20.996,-24.902,-20.996,181.152,0
1671211479.492,-19.531,-20.508,-28.809,-13.672,51.270,0
1671211479.496,-74.219,-19.531,-27.832,-28.809,-125.000,0
1671211479.500,-70.312,-20.996,-25.391,-36.133,-124.023,0
1671211479.504,-21.484,-16.602,-18.555,-35.645,-116.211,0
1671211479.506,15.625,-10.742,-15.137,-17.090,-85.449,0
1671211479.510,-7.324,-8.789,-12.695,-1.465,-73.242,0
1671211479.514,-53.711,-8.789,-5.371,-7.324,-35.156,0
1671211479.518,-68.359,-11.719,-10.742,-20.996,-25.879,0
1671211479.522,-28.809,-13.672,-26.367,-20.508,-31.250,0
1671211479.526,16.113,-13.184,-23.926,-12.207,-17.090,0
1671211479.530,-1.465,-12.695,-20.996,-2.441,152.832,0
1671211479.533,-50.293,-11.230,-12.207,3.418,368.652,0
1671211479.537,-79.590,-18.066,-14.648,-24.902,62.988,0
1671211479.541,-44.922,-22.461,-29.785,-40.527,-130.371,0
1671211479.545,5.859,-16.113,-26.855,-26.367,-28.809,0
1671211479.549,3.906,-11.719,-23.438,-10.254,-43.457,0
1671211479.550,-44.922,-7.812,-23.438,-1.953,-106.445,0
1671211479.554,-65.918,-9.766,-17.578,-11.719,-19.043,0
1671211479.558,-29.297,-21.484,-21.973,-26.855,166.504,0
1671211479.562,12.695,-20.508,-23.926,-26.855,28.320,0
1671211479.566,10.254,-16.602,-23.438,-19.043,-56.152,0
1671211479.570,-33.203,-23.438,-25.879,-12.695,64.941,0
1671211479.574,-56.152,-26.855,-22.949,-10.254,335.449,0
1671211479.577,-31.738,-19.043,-15.137,-16.602,286.133,0
1671211479.581,12.695,-12.207,-10.742,-16.602,-6.348,0
1671211479.585,20.996,-12.695,-15.137,-4.395,29.785,0
1671211479.589,-27.344,-12.207,-19.531,1.953,86.426,0
1671211479.593,-71.777,-19.531,-24.902,-18.555,-70.312,0
1671211479.597,-50.293,-22.461,-25.879,-32.227,-133.789,0
1671211479.601,6.348,-15.625,-26.855,-22.949,-57.129,0
1671211479.605,21.484,-17.090,-30.273,-14.160,-30.273,0
1671211479.609,-19.043,-16.113,-33.203,-10.254,-59.082,0
1671211479.613,-57.617,-15.137,-33.691,-17.090,-101.562,0
1671211479.617,-44.434,-20.020,-33.691,-24.902,-31.250,0
1671211479.621,0.000,-21.973,-35.645,-27.832,10.742,0
1671211479.624,22.461,-13.672,-27.832,-16.113,-23.438,0
1671211479.628,-12.207,-7.324,-20.996,-6.348,-34.668,0
1671211479.632,-63.477,-11.230,-32.715,-15.625,100.586,0
